OOIBase32 Version 2.0.5.2 Data File
++++++++++++++++++++++++++++++++++++
Date: 08-04-2009, 11:48:29
User: Valued Ocean Optics Customer
Spectrometer Serial Number: I2J345
Spectrometer Channel: Master
Integration Time (msec): 100
Spectra Averaged: 1
Boxcar Smoothing: 0
Correct for Electrical Dark: Enabled
Time Normalized: Disabled
Dual-beam Reference: Disabled
Reference Channel: Master
Temperature: Not acquired
Spectrometer Type: S2000
ADC Type: USB2000
Number of Pixels in File: 2048
Graph Title: 
>>>>>Begin Spectral Data<<<<<
370.53	0.000
370.90	0.000
371.28	-2.962
371.66	0.581
372.03	-1.962
372.41	-1.419
372.79	-1.962
373.16	-1.419
373.54	4.038
373.92	0.581
374.29	4.038
374.67	-0.419
375.05	-0.962
375.42	1.581
375.80	4.038
376.18	0.581
376.55	0.038
376.93	1.581
377.31	4.038
377.68	3.581
378.06	0.038
378.43	4.581
378.81	-1.962
379.19	3.581
379.56	6.038
379.94	8.581
380.31	2.038
380.69	3.581
381.07	3.038
381.44	3.581
381.82	1.038
382.19	3.581
382.57	1.038
382.94	0.581
383.32	1.038
383.70	3.581
384.07	4.038
384.45	2.581
384.82	4.038
385.20	-0.419
385.57	1.038
385.95	4.581
386.32	2.038
386.70	3.581
387.07	5.038
387.45	4.581
387.83	3.038
388.20	-0.419
388.58	3.038
388.95	2.581
389.33	7.038
389.70	4.581
390.08	11.038
390.45	6.581
390.83	1.038
391.20	0.581
391.58	3.038
391.95	5.581
392.32	5.038
392.70	5.581
393.07	4.038
393.45	5.581
393.82	7.038
394.20	4.581
394.57	6.038
394.95	2.581
395.32	6.038
395.70	5.581
396.07	-1.962
396.45	0.581
396.82	9.038
397.19	2.581
397.57	5.038
397.94	3.581
398.32	6.038
398.69	3.581
399.07	4.038
399.44	-0.419
399.81	4.038
400.19	-0.419
400.56	6.038
400.94	6.581
401.31	10.038
401.68	3.581
402.06	3.038
402.43	11.581
402.80	6.038
403.18	0.581
403.55	9.038
403.93	2.581
404.30	3.038
404.67	5.581
405.05	4.038
405.42	1.581
405.79	5.038
406.17	5.581
406.54	7.038
406.91	13.581
407.29	8.038
407.66	2.581
408.03	-1.962
408.41	1.581
408.78	2.038
409.15	3.581
409.53	12.038
409.90	2.581
410.27	3.038
410.65	4.581
411.02	1.038
411.39	3.581
411.76	2.038
412.14	8.581
412.51	6.038
412.88	4.581
413.26	2.038
413.63	5.581
414.00	9.038
414.37	6.581
414.75	8.038
415.12	1.581
415.49	8.038
415.86	6.581
416.24	3.038
416.61	18.581
416.98	5.038
417.35	8.581
417.73	6.038
418.10	3.581
418.47	3.038
418.84	1.581
419.21	5.038
419.59	1.581
419.96	-1.962
420.33	3.581
420.70	5.038
421.07	7.581
421.45	2.038
421.82	1.581
422.19	3.038
422.56	-1.419
422.93	5.038
423.31	3.581
423.68	6.038
424.05	2.581
424.42	5.038
424.79	5.581
425.16	4.038
425.54	1.581
425.91	3.038
426.28	1.581
426.65	5.038
427.02	-0.419
427.39	4.038
427.76	2.581
428.13	3.038
428.51	2.581
428.88	0.038
429.25	-0.419
429.62	4.038
429.99	2.581
430.36	2.038
430.73	6.581
431.10	4.038
431.47	1.581
431.85	3.038
432.22	7.581
432.59	4.038
432.96	2.581
433.33	-3.962
433.70	5.581
434.07	8.038
434.44	6.581
434.81	5.038
435.18	4.581
435.55	3.038
435.92	3.581
436.29	5.038
436.66	0.581
437.03	1.038
437.40	8.581
437.77	2.038
438.14	4.581
438.52	6.038
438.89	1.581
439.26	2.038
439.63	1.581
440.00	-1.962
440.37	4.581
440.74	4.038
441.11	9.581
441.48	2.038
441.85	7.581
442.22	6.038
442.58	7.581
442.95	3.038
443.32	4.581
443.69	6.038
444.06	3.581
444.43	8.038
444.80	4.581
445.17	4.038
445.54	-0.419
445.91	2.038
446.28	1.581
446.65	10.038
447.02	2.581
447.39	2.038
447.76	1.581
448.13	5.038
448.50	4.581
448.87	11.038
449.23	10.581
449.60	1.038
449.97	0.581
450.34	4.038
450.71	0.581
451.08	5.038
451.45	2.581
451.82	2.038
452.19	3.581
452.56	5.038
452.92	3.581
453.29	5.038
453.66	4.581
454.03	4.038
454.40	6.581
454.77	3.038
455.14	2.581
455.50	1.038
455.87	1.581
456.24	7.038
456.61	3.581
456.98	2.038
457.35	3.581
457.71	5.038
458.08	-1.419
458.45	7.038
458.82	6.581
459.19	3.038
459.55	5.581
459.92	3.038
460.29	4.581
460.66	7.038
461.03	1.581
461.39	3.038
461.76	2.581
462.13	2.038
462.50	5.581
462.87	5.038
463.23	7.581
463.60	3.038
463.97	4.581
464.34	10.038
464.70	5.581
465.07	3.038
465.44	0.581
465.81	6.038
466.17	1.581
466.54	-2.962
466.91	1.581
467.28	2.038
467.64	-1.419
468.01	2.038
468.38	6.581
468.74	1.038
469.11	6.581
469.48	4.038
469.84	0.581
470.21	0.038
470.58	4.581
470.95	6.038
471.31	6.581
471.68	7.038
472.05	4.581
472.41	4.038
472.78	2.581
473.15	5.038
473.51	3.581
473.88	2.038
474.25	4.581
474.61	3.038
474.98	7.581
475.35	5.038
475.71	2.581
476.08	3.038
476.44	4.581
476.81	2.038
477.18	3.581
477.54	5.038
477.91	-1.419
478.28	5.038
478.64	4.581
479.01	4.038
479.37	10.581
479.74	6.038
480.10	6.581
480.47	7.038
480.84	6.581
481.20	2.038
481.57	5.581
481.93	7.038
482.30	-0.419
482.67	3.038
483.03	-3.419
483.40	0.038
483.76	1.581
484.13	6.038
484.49	-1.419
484.86	3.038
485.22	8.581
485.59	3.038
485.95	0.581
486.32	5.038
486.68	3.581
487.05	5.038
487.41	4.581
487.78	2.038
488.14	0.581
488.51	2.038
488.87	4.581
489.24	5.038
489.60	5.581
489.97	10.038
490.33	2.581
490.70	6.038
491.06	4.581
491.43	4.038
491.79	5.581
492.16	1.038
492.52	2.581
492.89	3.038
493.25	-1.419
493.62	-0.962
493.98	-0.419
494.34	2.038
494.71	-2.419
495.07	0.038
495.44	0.581
495.80	5.038
496.17	2.581
496.53	4.038
496.89	2.581
497.26	1.038
497.62	6.581
497.99	-0.962
498.35	2.581
498.71	0.038
499.08	7.581
499.44	1.038
499.81	2.581
500.17	5.038
500.53	1.581
500.90	2.038
501.26	2.581
501.62	4.038
501.99	5.581
502.35	4.038
502.71	0.581
503.08	0.038
503.44	5.581
503.80	4.038
504.17	0.581
504.53	-3.962
504.89	4.581
505.26	1.038
505.62	-0.419
505.98	-1.962
506.35	0.581
506.71	2.038
507.07	2.581
507.44	-0.962
507.80	4.581
508.16	4.038
508.53	-1.419
508.89	5.038
509.25	2.581
509.61	1.038
509.98	4.581
510.34	7.038
510.70	1.581
511.06	0.038
511.43	3.581
511.79	0.038
512.15	10.581
512.51	1.038
512.88	4.581
513.24	5.038
513.60	1.581
513.96	4.038
514.33	1.581
514.69	7.038
515.05	6.581
515.41	2.038
515.77	5.581
516.14	4.038
516.50	6.581
516.86	6.038
517.22	4.581
517.58	7.038
517.95	0.581
518.31	3.038
518.67	5.581
519.03	-0.962
519.39	3.581
519.75	1.038
520.12	2.581
520.48	5.038
520.84	7.581
521.20	2.038
521.56	2.581
521.92	-0.962
522.28	3.581
522.65	5.038
523.01	9.581
523.37	2.038
523.73	4.581
524.09	9.038
524.45	-0.419
524.81	7.038
525.17	2.581
525.53	5.038
525.89	4.581
526.26	3.038
526.62	3.581
526.98	7.038
527.34	3.581
527.70	2.038
528.06	10.581
528.42	6.038
528.78	5.581
529.14	7.038
529.50	5.581
529.86	3.038
530.22	8.581
530.58	5.038
530.94	3.581
531.30	2.038
531.66	3.581
532.02	8.038
532.38	6.581
532.75	6.038
533.11	1.581
533.47	3.038
533.83	-1.419
534.19	6.038
534.55	7.581
534.91	3.038
535.27	6.581
535.62	6.038
535.98	3.581
536.34	-0.962
536.70	8.581
537.06	7.038
537.42	7.581
537.78	6.038
538.14	0.581
538.50	3.038
538.86	8.581
539.22	4.038
539.58	5.581
539.94	9.038
540.30	1.581
540.66	3.038
541.02	7.581
541.38	8.038
541.74	5.581
542.10	4.038
542.45	6.581
542.81	8.038
543.17	3.581
543.53	2.038
543.89	-0.419
544.25	7.038
544.61	5.581
544.97	2.038
545.33	4.581
545.68	3.038
546.04	2.581
546.40	5.038
546.76	10.581
547.12	6.038
547.48	1.581
547.84	2.038
548.19	8.581
548.55	6.038
548.91	9.581
549.27	6.038
549.63	4.581
549.99	8.038
550.34	8.581
550.70	10.038
551.06	4.581
551.42	5.038
551.78	8.581
552.13	6.038
552.49	13.581
552.85	9.038
553.21	9.581
553.57	7.038
553.92	4.581
554.28	9.038
554.64	13.581
555.00	18.038
555.35	9.581
555.71	15.038
556.07	12.581
556.43	14.038
556.78	17.581
557.14	17.038
557.50	20.581
557.86	16.038
558.21	21.581
558.57	15.038
558.93	12.581
559.28	13.038
559.64	24.581
560.00	17.038
560.36	21.581
560.71	18.038
561.07	22.581
561.43	22.038
561.78	24.581
562.14	28.038
562.50	24.581
562.85	32.038
563.21	26.581
563.57	36.038
563.92	26.581
564.28	32.038
564.64	35.581
564.99	37.038
565.35	28.581
565.71	42.038
566.06	43.581
566.42	37.038
566.78	45.581
567.13	46.038
567.49	44.581
567.84	45.038
568.20	54.581
568.56	54.038
568.91	61.581
569.27	56.038
569.62	70.581
569.98	65.038
570.34	70.581
570.69	76.038
571.05	79.581
571.40	79.038
571.76	81.581
572.12	78.038
572.47	82.581
572.83	89.038
573.18	92.581
573.54	96.038
573.89	99.581
574.25	109.038
574.60	107.581
574.96	109.038
575.31	114.581
575.67	120.038
576.02	131.581
576.38	133.038
576.74	146.581
577.09	149.038
577.45	154.581
577.80	152.038
578.16	159.581
578.51	164.038
578.86	176.581
579.22	195.038
579.57	192.581
579.93	202.038
580.28	209.581
580.64	221.038
580.99	225.581
581.35	236.038
581.70	238.581
582.06	240.038
582.41	264.581
582.77	277.038
583.12	277.581
583.47	291.038
583.83	307.581
584.18	312.038
584.54	327.581
584.89	346.038
585.25	342.581
585.60	364.038
585.95	369.581
586.31	382.038
586.66	402.581
587.02	412.038
587.37	432.581
587.72	447.038
588.08	455.581
588.43	485.038
588.78	505.581
589.14	527.038
589.49	541.581
589.85	557.038
590.20	591.581
590.55	625.038
590.91	653.581
591.26	665.038
591.61	714.581
591.97	744.038
592.32	766.581
592.67	782.038
593.03	845.581
593.38	868.038
593.73	913.581
594.09	980.038
594.44	999.581
594.79	1024.038
595.14	1093.581
595.50	1122.038
595.85	1164.581
596.20	1243.038
596.56	1299.581
596.91	1356.038
597.26	1430.581
597.61	1442.038
597.97	1553.581
598.32	1586.038
598.67	1697.581
599.02	1745.038
599.38	1796.581
599.73	1887.038
600.08	1970.581
600.43	2089.038
600.79	2144.581
601.14	2267.038
601.49	2310.581
601.84	2417.038
602.19	2579.581
602.55	2627.038
602.90	2762.581
603.25	2822.038
603.60	2951.581
603.95	3092.038
604.31	3151.581
604.66	3240.038
605.01	3374.581
605.36	3460.038
605.71	3546.581
606.06	3610.038
606.42	3723.581
606.77	3716.038
607.12	3779.581
607.47	3845.038
607.82	3834.581
608.17	3912.038
608.52	3933.581
608.88	3933.038
609.23	3955.581
609.58	3943.038
609.93	3872.581
610.28	3762.038
610.63	3621.581
610.98	3568.038
611.33	3425.581
611.69	3307.038
612.04	3206.581
612.39	3080.038
612.74	2931.581
613.09	2793.038
613.44	2625.581
613.79	2513.038
614.14	2330.581
614.49	2251.038
614.84	2098.581
615.19	1961.038
615.54	1856.581
615.89	1751.038
616.24	1667.581
616.59	1601.038
616.94	1482.581
617.29	1438.038
617.64	1360.581
617.99	1325.038
618.35	1273.581
618.70	1190.038
619.05	1131.581
619.40	1075.038
619.75	1037.581
620.10	986.038
620.45	956.581
620.79	908.038
621.14	864.581
621.49	837.038
621.84	778.581
622.19	744.038
622.54	727.581
622.89	671.038
623.24	641.581
623.59	605.038
623.94	577.581
624.29	548.038
624.64	513.581
624.99	479.038
625.34	448.581
625.69	412.038
626.04	406.581
626.39	367.038
626.74	344.581
627.08	330.038
627.43	319.581
627.78	277.038
628.13	258.581
628.48	258.038
628.83	245.581
629.18	221.038
629.53	206.581
629.88	198.038
630.22	181.581
630.57	168.038
630.92	159.581
631.27	151.038
631.62	139.581
631.97	129.038
632.32	124.581
632.66	115.038
633.01	115.581
633.36	103.038
633.71	98.581
634.06	94.038
634.41	89.581
634.75	76.038
635.10	68.581
635.45	69.038
635.80	64.581
636.15	59.038
636.49	60.581
636.84	53.038
637.19	56.581
637.54	57.038
637.88	56.581
638.23	44.038
638.58	46.581
638.93	38.038
639.27	43.581
639.62	37.038
639.97	42.581
640.32	28.038
640.66	37.581
641.01	26.038
641.36	26.581
641.71	26.038
642.05	26.581
642.40	25.038
642.75	24.581
643.10	30.038
643.44	17.581
643.79	22.038
644.14	19.581
644.48	20.038
644.83	17.581
645.18	20.038
645.52	19.581
645.87	17.038
646.22	7.581
646.56	19.038
646.91	13.581
647.26	19.038
647.60	10.581
647.95	17.038
648.30	14.581
648.64	17.038
648.99	8.581
649.33	15.038
649.68	10.581
650.03	4.038
650.37	5.581
650.72	8.038
651.07	7.581
651.41	7.038
651.76	12.581
652.10	7.038
652.45	7.581
652.80	7.038
653.14	9.581
653.49	10.038
653.83	7.581
654.18	8.038
654.52	8.581
654.87	3.038
655.22	5.581
655.56	9.038
655.91	8.581
656.25	11.038
656.60	10.581
656.94	2.038
657.29	0.581
657.63	6.038
657.98	6.581
658.32	6.038
658.67	2.581
659.01	3.038
659.36	2.581
659.70	2.038
660.05	4.581
660.39	5.038
660.74	4.581
661.08	5.038
661.43	4.581
661.77	2.038
662.12	8.581
662.46	5.038
662.81	1.581
663.15	3.038
663.49	-0.419
663.84	6.038
664.18	7.581
664.53	4.038
664.87	6.581
665.22	1.038
665.56	2.581
665.90	7.038
666.25	2.581
666.59	0.038
666.94	1.581
667.28	-1.962
667.63	2.581
667.97	4.038
668.31	3.581
668.66	-3.962
669.00	-0.419
669.34	6.038
669.69	1.581
670.03	0.038
670.38	6.581
670.72	4.038
671.06	-1.419
671.41	0.038
671.75	3.581
672.09	6.038
672.44	4.581
672.78	6.038
673.12	4.581
673.47	4.038
673.81	1.581
674.15	7.038
674.49	5.581
674.84	-0.962
675.18	3.581
675.52	2.038
675.87	-0.419
676.21	3.038
676.55	-0.419
676.89	5.038
677.24	-1.419
677.58	2.038
677.92	3.581
678.27	-0.962
678.61	3.581
678.95	7.038
679.29	3.581
679.64	1.038
679.98	1.581
680.32	0.038
680.66	2.581
681.00	9.038
681.35	4.581
681.69	1.038
682.03	1.581
682.37	-1.962
682.71	1.581
683.06	9.038
683.40	4.581
683.74	6.038
684.08	1.581
684.42	-2.962
684.77	0.581
685.11	3.038
685.45	4.581
685.79	6.038
686.13	5.581
686.47	1.038
686.81	4.581
687.16	-0.962
687.50	1.581
687.84	-0.962
688.18	5.581
688.52	1.038
688.86	4.581
689.20	3.038
689.54	1.581
689.89	0.038
690.23	1.581
690.57	6.038
690.91	3.581
691.25	8.038
691.59	0.581
691.93	2.038
692.27	1.581
692.61	-3.962
692.95	2.581
693.29	4.038
693.63	-1.419
693.97	-1.962
694.32	0.581
694.66	1.038
695.00	3.581
695.34	3.038
695.68	-1.419
696.02	1.038
696.36	2.581
696.70	2.038
697.04	2.581
697.38	1.038
697.72	2.581
698.06	2.038
698.40	0.581
698.74	2.038
699.08	8.581
699.42	7.038
699.76	3.581
700.10	9.038
700.44	2.581
700.78	0.038
701.11	5.581
701.45	7.038
701.79	-1.419
702.13	0.038
702.47	0.581
702.81	6.038
703.15	2.581
703.49	2.038
703.83	1.581
704.17	-0.962
704.51	6.581
704.85	1.038
705.19	6.581
705.52	7.038
705.86	5.581
706.20	3.038
706.54	3.581
706.88	1.038
707.22	2.581
707.56	8.038
707.90	1.581
708.23	2.038
708.57	3.581
708.91	6.038
709.25	6.581
709.59	5.038
709.93	3.581
710.27	3.038
710.60	1.581
710.94	9.038
711.28	5.581
711.62	3.038
711.96	-0.419
712.29	-1.962
712.63	-2.419
712.97	1.038
713.31	2.581
713.65	1.038
713.98	1.581
714.32	2.038
714.66	3.581
715.00	0.038
715.33	2.581
715.67	3.038
716.01	0.581
716.35	1.038
716.68	7.581
717.02	6.038
717.36	0.581
717.70	2.038
718.03	8.581
718.37	5.038
718.71	1.581
719.05	4.038
719.38	1.581
719.72	4.038
720.06	3.581
720.39	-2.962
720.73	-3.419
721.07	6.038
721.40	4.581
721.74	6.038
722.08	3.581
722.41	7.038
722.75	3.581
723.09	4.038
723.42	-1.419
723.76	-0.962
724.10	1.581
724.43	-4.962
724.77	1.581
725.11	1.038
725.44	1.581
725.78	-2.962
726.11	1.581
726.45	-1.962
726.79	7.581
727.12	0.038
727.46	0.581
727.79	2.038
728.13	5.581
728.47	6.038
728.80	5.581
729.14	6.038
729.47	1.581
729.81	2.038
730.14	1.581
730.48	2.038
730.82	2.581
731.15	6.038
731.49	1.581
731.82	1.038
732.16	2.581
732.49	1.038
732.83	3.581
733.16	3.038
733.50	-1.419
733.83	6.038
734.17	-1.419
734.50	3.038
734.84	0.581
735.17	4.038
735.51	-2.419
735.84	2.038
736.18	-0.419
736.51	4.038
736.85	2.581
737.18	3.038
737.52	3.581
737.85	1.038
738.19	1.581
738.52	4.038
738.85	2.581
739.19	-0.962
739.52	0.581
739.86	4.038
740.19	-1.419
740.53	3.038
740.86	4.581
741.19	2.038
741.53	4.581
741.86	2.038
742.20	0.581
742.53	-2.962
742.86	4.581
743.20	-0.962
743.53	2.581
743.86	2.038
744.20	1.581
744.53	-0.962
744.86	3.581
745.20	9.038
745.53	-0.419
745.87	6.038
746.20	2.581
746.53	-2.962
746.87	0.581
747.20	2.038
747.53	0.581
747.86	1.038
748.20	3.581
748.53	5.038
748.86	4.581
749.20	1.038
749.53	-0.419
749.86	3.038
750.20	-0.419
750.53	0.038
750.86	2.581
751.19	1.038
751.53	2.581
751.86	2.038
752.19	2.581
752.52	2.038
752.86	1.581
753.19	3.038
753.52	4.581
753.85	2.038
754.19	3.581
754.52	2.038
754.85	1.581
755.18	1.038
755.51	1.581
755.85	-1.962
756.18	5.581
756.51	6.038
756.84	4.581
757.17	-0.962
757.51	1.581
757.84	5.038
758.17	3.581
758.50	5.038
758.83	-1.419
759.16	3.038
759.49	0.581
759.83	-2.962
760.16	5.581
760.49	8.038
760.82	2.581
761.15	5.038
761.48	-0.419
761.81	7.038
762.14	1.581
762.48	8.038
762.81	5.581
763.14	2.038
763.47	2.581
763.80	-2.962
764.13	0.581
764.46	6.038
764.79	3.581
765.12	3.038
765.45	7.581
765.78	3.038
766.11	8.581
766.44	0.038
766.78	1.581
767.11	1.038
767.44	0.581
767.77	3.038
768.10	0.581
768.43	2.038
768.76	-0.419
769.09	-1.962
769.42	3.581
769.75	-0.962
770.08	2.581
770.41	4.038
770.74	5.581
771.07	3.038
771.40	5.581
771.73	2.038
772.06	5.581
772.39	5.038
772.71	0.581
773.04	2.038
773.37	9.581
773.70	7.038
774.03	2.581
774.36	2.038
774.69	6.581
775.02	10.038
775.35	4.581
775.68	3.038
776.01	5.581
776.34	8.038
776.67	0.581
777.00	8.038
777.32	1.581
777.65	4.038
777.98	5.581
778.31	3.038
778.64	2.581
778.97	-2.962
779.30	0.581
779.63	2.038
779.95	5.581
780.28	5.038
780.61	3.581
780.94	4.038
781.27	-0.419
781.60	3.038
781.92	0.581
782.25	2.038
782.58	0.581
782.91	4.038
783.24	3.581
783.56	-0.962
783.89	7.581
784.22	4.038
784.55	4.581
784.88	3.038
785.20	4.581
785.53	3.038
785.86	7.581
786.19	2.038
786.51	5.581
786.84	8.038
787.17	3.581
787.50	8.038
787.82	3.581
788.15	1.038
788.48	1.581
788.81	5.038
789.13	7.581
789.46	4.038
789.79	-4.419
790.11	3.038
790.44	1.581
790.77	3.038
791.09	0.581
791.42	6.038
791.75	3.581
792.08	4.038
792.40	3.581
792.73	1.038
793.06	4.581
793.38	4.038
793.71	6.581
794.03	1.038
794.36	0.581
794.69	8.038
795.01	0.581
795.34	7.038
795.67	1.581
795.99	2.038
796.32	4.581
796.64	4.038
796.97	0.581
797.30	4.038
797.62	5.581
797.95	5.038
798.27	5.581
798.60	4.038
798.93	4.581
799.25	5.038
799.58	-0.419
799.90	0.038
800.23	-0.419
800.55	5.038
800.88	2.581
801.20	2.038
801.53	6.581
801.86	2.038
802.18	1.581
802.51	4.038
802.83	6.581
803.16	6.038
803.48	8.581
803.81	8.038
804.13	3.581
804.46	5.038
804.78	1.581
805.11	2.038
805.43	4.581
805.75	7.038
806.08	2.581
806.40	10.038
806.73	9.581
807.05	3.038
807.38	5.581
807.70	8.038
808.03	6.581
808.35	7.038
808.67	1.581
809.00	7.038
809.32	4.581
809.65	5.038
809.97	4.581
810.30	10.038
810.62	1.581
810.94	6.038
811.27	-0.419
811.59	1.038
811.91	3.581
812.24	4.038
812.56	3.581
812.89	2.038
813.21	6.581
813.53	6.038
813.86	2.581
814.18	8.038
814.50	3.581
814.83	5.038
815.15	1.581
815.47	9.038
815.80	12.581
816.12	6.038
816.44	2.581
816.77	3.038
817.09	1.581
817.41	3.038
817.73	3.581
818.06	1.038
818.38	6.581
818.70	5.038
819.03	8.581
819.35	6.038
819.67	1.581
819.99	-0.962
820.32	6.581
820.64	8.038
820.96	5.581
821.28	1.038
821.61	-0.419
821.93	5.038
822.25	3.581
822.57	2.038
822.89	5.581
823.22	2.038
823.54	9.581
823.86	8.038
824.18	7.581
824.50	0.038
824.83	0.581
825.15	5.038
825.47	2.581
825.79	5.038
826.11	6.581
826.43	9.038
826.76	6.581
827.08	4.038
827.40	8.581
827.72	3.038
828.04	8.581
828.36	5.038
828.68	6.581
829.00	7.038
829.33	1.581
829.65	5.038
829.97	-0.419
830.29	8.038
830.61	4.581
830.93	8.038
831.25	5.581
831.57	2.038
831.89	9.581
832.21	0.038
832.53	0.581
832.85	3.038
833.18	4.581
833.50	3.038
833.82	1.581
834.14	6.038
834.46	7.581
834.78	7.038
835.10	1.581
835.42	6.038
835.74	4.581
836.06	3.038
836.38	5.581
836.70	9.038
837.02	2.581
837.34	7.038
837.66	5.581
837.98	6.038
838.30	7.581
838.62	5.038
838.94	4.581
839.26	11.038
839.58	4.581
839.89	8.038
840.21	7.581
840.53	5.038
840.85	0.581
841.17	8.038
841.49	8.581
841.81	5.038
842.13	1.581
842.45	2.038
842.77	5.581
843.09	2.038
843.41	5.581
843.72	2.038
844.04	7.581
844.36	7.038
844.68	10.581
845.00	9.038
845.32	1.581
845.64	10.038
845.96	3.581
846.27	5.038
846.59	4.581
846.91	5.038
847.23	13.581
847.55	10.038
847.87	4.581
848.18	2.038
848.50	3.581
848.82	6.038
849.14	8.581
849.46	3.038
849.77	2.581
850.09	2.038
850.41	7.581
850.73	5.038
851.04	9.581
851.36	6.038
851.68	3.581
852.00	4.038
852.32	6.581
852.63	5.038
852.95	7.581
853.27	5.038
853.58	8.581
853.90	2.038
854.22	1.581
854.54	4.038
854.85	-0.419
855.17	4.038
855.49	7.581
855.80	2.038
856.12	0.581
856.44	3.038
856.76	5.581
857.07	5.038
857.39	9.581
857.71	1.038
858.02	1.581
858.34	4.038
858.65	2.581
858.97	2.038
859.29	5.581
859.60	2.038
859.92	7.581
860.24	2.038
860.55	6.581
860.87	5.038
861.19	3.581
861.50	5.038
861.82	10.581
862.13	6.038
862.45	2.581
862.77	3.038
863.08	3.581
863.40	7.038
863.71	3.581
864.03	7.038
864.34	5.581
864.66	7.038
864.97	7.581
865.29	6.038
865.61	0.581
865.92	12.038
866.24	2.581
866.55	5.038
866.87	7.581
867.18	3.038
867.50	4.581
867.81	6.038
868.13	9.581
868.44	8.038
868.76	1.581
869.07	3.038
869.39	4.581
869.70	7.038
870.02	5.581
870.33	4.038
870.64	5.581
870.96	3.038
871.27	2.581
871.59	3.038
871.90	2.581
872.22	3.038
872.53	2.581
872.85	7.038
873.16	6.581
873.47	5.038
873.79	2.581
874.10	0.038
874.42	-2.419
874.73	4.038
875.04	0.581
875.36	1.038
875.67	7.581
875.98	5.038
876.30	0.581
876.61	4.038
876.93	7.581
877.24	5.038
877.55	2.581
877.87	1.038
878.18	7.581
878.49	5.038
878.81	7.581
879.12	5.038
879.43	5.581
879.75	4.038
880.06	2.581
880.37	5.038
880.68	-1.419
881.00	2.038
881.31	-0.419
881.62	3.038
881.94	5.581
882.25	7.038
882.56	4.581
882.87	6.038
883.19	4.581
883.50	2.038
883.81	8.581
884.12	5.038
884.44	7.581
884.75	8.038
885.06	7.581
885.37	5.038
885.68	2.581
886.00	2.038
886.31	7.581
886.62	1.038
886.93	1.581
887.24	-0.962
887.56	6.581
887.87	8.038
888.18	2.581
888.49	4.038
888.80	-0.419
889.11	1.038
889.43	0.581
889.74	7.038
890.05	1.581
890.36	6.038
890.67	10.581
890.98	2.038
891.29	8.581
891.61	5.038
891.92	0.581
892.23	2.038
892.54	0.581
892.85	4.038
893.16	10.581
893.47	4.038
893.78	-3.419
894.09	5.038
894.40	2.581
894.71	4.038
895.02	3.581
895.33	4.038
895.65	3.581
895.96	4.038
896.27	1.581
896.58	5.038
896.89	1.581
897.20	5.038
897.51	5.581
897.82	4.038
898.13	3.581
898.44	6.038
898.75	-1.419
899.06	6.038
899.37	6.581
899.68	2.038
899.99	-0.419
900.30	2.038
900.61	1.581
900.92	1.038
901.23	2.581
901.53	7.038
901.84	1.581
902.15	2.038
902.46	1.581
902.77	8.038
903.08	2.581
903.39	6.038
903.70	1.581
904.01	4.038
904.32	-1.419
904.63	1.038
904.94	-3.419
905.24	3.038
905.55	3.581
905.86	4.038
906.17	1.581
906.48	3.038
906.79	2.581
907.10	0.038
907.40	-1.419
907.71	0.038
908.02	-2.419
908.33	6.038
908.64	1.581
908.95	0.038
909.25	1.581
909.56	3.038
909.87	0.581
910.18	2.038
910.49	-0.419
910.79	3.038
911.10	-0.419
911.41	1.038
911.72	-0.419
912.03	2.038
912.33	8.581
912.64	7.038
912.95	-0.419
913.26	0.038
913.56	-0.419
913.87	2.038
914.18	1.581
914.49	0.038
914.79	0.581
915.10	7.038
915.41	-0.419
915.71	3.038
916.02	2.581
916.33	5.038
916.64	-0.419
916.94	0.038
917.25	2.581
917.56	4.038
917.86	0.581
918.17	2.038
918.48	5.581
918.78	2.038
919.09	1.581
919.40	1.038
919.70	5.581
920.01	4.038
920.31	4.581
920.62	6.038
920.93	2.581
921.23	7.038
921.54	3.581
921.85	6.038
922.15	-1.419
922.46	4.038
922.76	-0.419
923.07	-0.962
923.37	-0.419
923.68	2.038
923.99	3.581
924.29	5.038
924.60	9.581
924.90	3.038
925.21	5.581
925.51	6.038
925.82	2.581
926.12	0.038
926.43	1.581
926.73	5.038
927.04	3.581
927.34	0.038
927.65	-0.419
927.95	-1.962
928.26	1.581
928.56	1.038
928.87	6.581
929.17	3.038
929.48	-0.419
929.78	2.038
930.09	-1.419
930.39	0.038
930.70	4.581
931.00	0.038
931.31	7.581
931.61	4.038
931.91	-0.419
932.22	2.038
932.52	4.581
932.83	4.038
933.13	1.581
933.44	0.038
933.74	-2.419
934.04	3.038
934.35	1.581
934.65	5.038
934.95	3.581
935.26	2.038
935.56	0.581
935.87	2.038
936.17	2.581
936.47	1.038
936.78	2.581
937.08	2.038
937.38	3.581
937.69	4.038
937.99	-0.419
938.29	3.038
938.60	0.581
938.90	0.038
939.20	3.581
939.50	7.038
939.81	0.581
940.11	6.038
940.41	-1.419
940.72	3.038
941.02	5.581
941.32	2.038
941.62	0.581
941.93	1.038
942.23	3.581
942.53	2.038
942.83	1.581
943.14	5.038
943.44	3.581
943.74	-0.962
944.04	0.581
944.34	4.038
944.65	2.581
944.95	0.038
945.25	0.581
945.55	-0.962
945.85	3.581
946.16	5.038
946.46	7.581
946.76	5.038
947.06	3.581
947.36	3.038
947.66	-2.419
947.97	0.038
948.27	0.581
948.57	4.038
948.87	2.581
949.17	8.038
949.47	2.581
949.77	5.038
950.07	-1.419
950.38	3.038
950.68	1.581
950.98	5.038
951.28	6.581
951.58	3.038
951.88	-2.419
952.18	2.038
952.48	1.581
952.78	5.038
953.08	3.581
953.38	8.038
953.68	2.581
953.98	3.038
954.28	3.581
954.58	0.038
954.88	0.581
955.18	5.038
955.48	-2.419
955.78	2.038
956.08	1.581
956.38	-0.962
956.68	4.581
956.98	-0.962
957.28	4.581
957.58	4.038
957.88	0.581
958.18	1.038
958.48	1.581
958.78	2.038
959.08	4.581
959.38	4.038
959.68	1.581
959.98	3.038
960.28	4.581
960.58	0.038
960.88	4.581
961.18	1.038
961.48	4.581
961.77	3.038
962.07	7.581
962.37	5.038
962.67	1.581
962.97	4.038
963.27	1.581
963.57	0.038
963.87	-0.419
964.16	0.038
964.46	0.581
964.76	5.038
965.06	3.581
965.36	-1.962
965.66	-1.419
965.95	-3.962
966.25	4.581
966.55	3.038
966.85	-1.419
967.15	3.038
967.44	2.581
967.74	5.038
968.04	1.581
968.34	4.038
968.64	-0.419
968.93	3.038
969.23	1.581
969.53	6.038
969.83	3.581
970.12	5.038
970.42	-1.419
970.72	5.038
971.02	0.581
971.31	1.038
971.61	0.581
971.91	1.038
972.20	0.581
972.50	-0.962
972.80	4.581
973.10	3.038
973.39	-0.419
973.69	2.038
973.99	1.581
974.28	2.038
974.58	4.581
974.88	1.038
975.17	4.581
975.47	3.038
975.77	1.581
976.06	3.038
976.36	-1.419
976.65	2.038
976.95	-1.419
977.25	-1.962
977.54	2.581
977.84	4.038
978.13	8.581
978.43	3.038
978.73	8.581
979.02	-1.962
979.32	0.581
979.61	6.038
979.91	5.581
980.21	4.038
980.50	2.581
980.80	4.038
981.09	3.581
981.39	2.038
981.68	5.581
981.98	5.038
982.27	1.581
982.57	-5.962
982.86	-2.419
983.16	-2.962
983.45	0.581
983.75	1.038
984.04	-0.419
984.34	3.038
984.63	-2.419
984.93	2.038
985.22	-1.419
985.52	2.038
985.81	1.581
986.11	-5.962
986.40	2.581
986.69	2.038
986.99	-0.419
987.28	1.038
987.58	1.581
987.87	4.038
988.17	5.581
988.46	6.038
988.75	2.581
989.05	2.038
989.34	-0.419
989.64	1.038
989.93	1.581
990.22	4.038
990.52	0.581
990.81	5.038
991.10	0.581
991.40	7.038
991.69	0.581
991.98	0.038
992.28	3.581
992.57	9.038
992.86	3.581
993.16	8.038
993.45	1.581
993.74	5.038
994.04	2.581
994.33	-1.962
994.62	3.581
994.92	2.038
995.21	3.581
995.50	4.038
995.79	0.581
996.09	3.038
996.38	4.581
996.67	4.038
996.96	4.581
997.26	4.038
997.55	1.581
997.84	5.038
998.13	4.581
998.43	3.038
998.72	-0.419
999.01	1.038
999.30	0.581
999.59	10.038
999.89	2.581
1000.18	2.038
1000.47	5.581
1000.76	0.038
1001.05	1.581
1001.34	2.038
1001.64	3.581
1001.93	3.038
1002.22	0.581
1002.51	5.038
1002.80	4.581
1003.09	4.038
1003.38	-0.419
1003.68	1.038
1003.97	4.581
1004.26	3.038
1004.55	3.581
1004.84	2.038
1005.13	-0.419
1005.42	3.038
1005.71	2.581
1006.00	0.038
1006.29	1.581
1006.58	2.038
1006.87	5.581
1007.17	2.038
1007.46	4.581
1007.75	3.038
1008.04	1.581
1008.33	2.038
1008.62	0.581
1008.91	-0.962
1009.20	0.581
1009.49	-1.962
1009.78	0.581
1010.07	2.038
1010.36	-1.419
1010.65	3.038
1010.94	-0.419
1011.23	7.038
1011.52	0.581
1011.81	11.038
1012.10	-0.419
1012.39	10.038
1012.67	2.581
1012.96	3.038
1013.25	-1.419
1013.54	0.038
1013.83	6.581
1014.12	0.038
1014.41	-1.419
1014.70	-0.962
1014.99	2.581
1015.28	0.038
1015.57	0.581
1015.86	-1.962
1016.14	1.581
1016.43	4.038
1016.72	1.581
1017.01	6.038
1017.30	1.581
1017.59	0.038
1017.88	1.581
1018.16	4.038
1018.45	5.581
1018.74	4.038
1019.03	3.581
1019.32	3.038
1019.60	1.581
1019.89	8.038
1020.18	2.581
1020.47	-0.962
1020.76	3.581
1021.04	1.038
1021.33	-2.419
1021.62	0.038
1021.91	1.581
1022.20	0.038
1022.48	5.581
1022.77	3.038
1023.06	-2.419
1023.35	2.038
1023.63	1.581
1023.92	1.038
1024.21	4.581
1024.49	4.038
1024.78	2.581
1025.07	-0.962
1025.36	3.581
1025.64	5.038
1025.93	5.581
1026.22	4.038
1026.50	3.581
1026.79	8.038
1027.08	5.581
1027.36	6.038
1027.65	1.581
1027.94	1.038
1028.22	1.581
1028.51	4.038
1028.79	-1.419
1029.08	1.038
1029.37	4.581
1029.65	4.038
1029.94	0.581
1030.23	5.038
1030.51	3.581
1030.80	3.038
1031.08	3.581
1031.37	8.038
1031.65	-1.419
1031.94	5.038
1032.23	7.581
1032.51	3.038
1032.80	4.581
1033.08	4.038
1033.37	1.581
1033.65	-0.962
1033.94	3.581
1034.22	7.038
1034.51	2.581
1034.79	10.038
1035.08	3.581
1035.36	4.038
1035.65	1.581
1035.93	9.038
1036.22	3.581
1036.50	1.038
1036.79	11.581
1037.07	5.038
1037.36	2.581
1037.64	4.038
1037.93	0.581
1038.21	5.038
1038.50	3.581
1038.78	1.038
1039.06	1.581
1039.35	3.038
1039.63	3.581
1039.92	6.038
1040.20	-0.419
1040.48	3.038
1040.77	-2.419
1041.05	2.038
1041.34	2.581
1041.62	-1.962
1041.90	-6.419
1042.19	1.038
1042.47	-1.419
1042.75	-1.962
1043.04	-4.419
1043.32	8.038
1043.60	2.581
1043.89	7.038
1044.17	2.581
1044.45	3.038
1044.74	-0.419
1045.02	2.038
1045.30	0.581
1045.59	3.038
1045.87	1.581
1046.15	4.038
1046.44	3.581
1046.72	0.038
1047.00	3.581
1047.28	4.038
1047.57	3.581
1047.85	6.038
1048.13	4.581
1048.41	4.038
1048.70	-1.419
1048.98	4.038
1049.26	-0.419
1049.54	3.038
1049.82	-8.419
1050.11	4.038
1050.39	1.581
1050.67	1.038
1050.95	3.581
1051.23	-2.962
1051.52	3.581
1051.80	-1.962
1052.08	3.581
>>>>>End Spectral Data<<<<<
