OOIBase32 Version 2.0.5.2 Data File
++++++++++++++++++++++++++++++++++++
Date: 08-04-2009, 11:51:07
User: Valued Ocean Optics Customer
Spectrometer Serial Number: I2J345
Spectrometer Channel: Master
Integration Time (msec): 100
Spectra Averaged: 1
Boxcar Smoothing: 0
Correct for Electrical Dark: Enabled
Time Normalized: Disabled
Dual-beam Reference: Disabled
Reference Channel: Master
Temperature: Not acquired
Spectrometer Type: S2000
ADC Type: USB2000
Number of Pixels in File: 2048
Graph Title: 
>>>>>Begin Spectral Data<<<<<
370.53	0.000
370.90	0.000
371.28	-2.753
371.66	0.507
372.03	-1.753
372.41	1.507
372.79	0.247
373.16	-0.493
373.54	4.247
373.92	2.507
374.29	3.247
374.67	1.507
375.05	5.247
375.42	3.507
375.80	4.247
376.18	1.507
376.55	5.247
376.93	9.507
377.31	3.247
377.68	-0.493
378.06	2.247
378.43	3.507
378.81	4.247
379.19	0.507
379.56	0.247
379.94	2.507
380.31	4.247
380.69	-3.493
381.07	0.247
381.44	0.507
381.82	0.247
382.19	3.507
382.57	2.247
382.94	-0.493
383.32	3.247
383.70	-2.493
384.07	-1.753
384.45	0.507
384.82	4.247
385.20	1.507
385.57	4.247
385.95	6.507
386.32	5.247
386.70	5.507
387.07	5.247
387.45	2.507
387.83	6.247
388.20	2.507
388.58	1.247
388.95	5.507
389.33	9.247
389.70	4.507
390.08	4.247
390.45	-1.493
390.83	1.247
391.20	5.507
391.58	3.247
391.95	7.507
392.32	4.247
392.70	-0.493
393.07	7.247
393.45	2.507
393.82	3.247
394.20	4.507
394.57	2.247
394.95	4.507
395.32	7.247
395.70	2.507
396.07	3.247
396.45	6.507
396.82	5.247
397.19	4.507
397.57	3.247
397.94	0.507
398.32	6.247
398.69	4.507
399.07	5.247
399.44	3.507
399.81	5.247
400.19	3.507
400.56	4.247
400.94	2.507
401.31	4.247
401.68	1.507
402.06	3.247
402.43	7.507
402.80	4.247
403.18	3.507
403.55	10.247
403.93	5.507
404.30	4.247
404.67	1.507
405.05	2.247
405.42	8.507
405.79	1.247
406.17	-0.493
406.54	-2.753
406.91	14.507
407.29	4.247
407.66	4.507
408.03	4.247
408.41	7.507
408.78	0.247
409.15	2.507
409.53	12.247
409.90	3.507
410.27	4.247
410.65	1.507
411.02	2.247
411.39	4.507
411.76	4.247
412.14	4.507
412.51	4.247
412.88	3.507
413.26	0.247
413.63	7.507
414.00	5.247
414.37	4.507
414.75	3.247
415.12	0.507
415.49	2.247
415.86	1.507
416.24	2.247
416.61	7.507
416.98	8.247
417.35	4.507
417.73	0.247
418.10	0.507
418.47	2.247
418.84	2.507
419.21	5.247
419.59	1.507
419.96	4.247
420.33	2.507
420.70	2.247
421.07	-1.493
421.45	2.247
421.82	3.507
422.19	4.247
422.56	9.507
422.93	7.247
423.31	5.507
423.68	7.247
424.05	3.507
424.42	4.247
424.79	9.507
425.16	7.247
425.54	3.507
425.91	5.247
426.28	0.507
426.65	6.247
427.02	4.507
427.39	2.247
427.76	4.507
428.13	3.247
428.51	2.507
428.88	2.247
429.25	1.507
429.62	0.247
429.99	4.507
430.36	2.247
430.73	0.507
431.10	4.247
431.47	5.507
431.85	8.247
432.22	2.507
432.59	1.247
432.96	0.507
433.33	4.247
433.70	6.507
434.07	1.247
434.44	3.507
434.81	4.247
435.18	7.507
435.55	6.247
435.92	5.507
436.29	9.247
436.66	4.507
437.03	6.247
437.40	4.507
437.77	-0.753
438.14	6.507
438.52	4.247
438.89	-0.493
439.26	8.247
439.63	2.507
440.00	4.247
440.37	7.507
440.74	5.247
441.11	1.507
441.48	2.247
441.85	4.507
442.22	-3.753
442.58	6.507
442.95	5.247
443.32	3.507
443.69	2.247
444.06	-0.493
444.43	6.247
444.80	0.507
445.17	-2.753
445.54	1.507
445.91	5.247
446.28	4.507
446.65	1.247
447.02	5.507
447.39	9.247
447.76	8.507
448.13	5.247
448.50	7.507
448.87	6.247
449.23	9.507
449.60	4.247
449.97	6.507
450.34	2.247
450.71	2.507
451.08	6.247
451.45	6.507
451.82	8.247
452.19	8.507
452.56	4.247
452.92	2.507
453.29	3.247
453.66	9.507
454.03	2.247
454.40	-0.493
454.77	3.247
455.14	-2.493
455.50	3.247
455.87	1.507
456.24	1.247
456.61	7.507
456.98	8.247
457.35	6.507
457.71	1.247
458.08	2.507
458.45	6.247
458.82	8.507
459.19	12.247
459.55	7.507
459.92	4.247
460.29	10.507
460.66	3.247
461.03	6.507
461.39	10.247
461.76	2.507
462.13	3.247
462.50	6.507
462.87	4.247
463.23	3.507
463.60	4.247
463.97	2.507
464.34	8.247
464.70	-0.493
465.07	3.247
465.44	6.507
465.81	1.247
466.17	9.507
466.54	2.247
466.91	2.507
467.28	2.247
467.64	0.507
468.01	4.247
468.38	1.507
468.74	-0.753
469.11	-1.493
469.48	6.247
469.84	3.507
470.21	9.247
470.58	2.507
470.95	5.247
471.31	1.507
471.68	2.247
472.05	3.507
472.41	1.247
472.78	5.507
473.15	3.247
473.51	5.507
473.88	1.247
474.25	2.507
474.61	3.247
474.98	9.507
475.35	5.247
475.71	0.507
476.08	2.247
476.44	2.507
476.81	7.247
477.18	2.507
477.54	9.247
477.91	0.507
478.28	1.247
478.64	3.507
479.01	5.247
479.37	2.507
479.74	4.247
480.10	-5.493
480.47	3.247
480.84	-0.493
481.20	1.247
481.57	2.507
481.93	6.247
482.30	8.507
482.67	3.247
483.03	2.507
483.40	5.247
483.76	5.507
484.13	3.247
484.49	3.507
484.86	10.247
485.22	4.507
485.59	3.247
485.95	5.507
486.32	4.247
486.68	13.507
487.05	3.247
487.41	3.507
487.78	3.247
488.14	3.507
488.51	4.247
488.87	-4.493
489.24	0.247
489.60	0.507
489.97	-2.753
490.33	4.507
490.70	2.247
491.06	-0.493
491.43	2.247
491.79	5.507
492.16	2.247
492.52	2.507
492.89	1.247
493.25	2.507
493.62	5.247
493.98	1.507
494.34	3.247
494.71	4.507
495.07	2.247
495.44	1.507
495.80	2.247
496.17	2.507
496.53	7.247
496.89	3.507
497.26	6.247
497.62	3.507
497.99	6.247
498.35	2.507
498.71	4.247
499.08	8.507
499.44	2.247
499.81	1.507
500.17	1.247
500.53	-2.493
500.90	3.247
501.26	5.507
501.62	5.247
501.99	4.507
502.35	6.247
502.71	3.507
503.08	5.247
503.44	1.507
503.80	-1.753
504.17	-1.493
504.53	2.247
504.89	4.507
505.26	5.247
505.62	0.507
505.98	7.247
506.35	4.507
506.71	6.247
507.07	2.507
507.44	9.247
507.80	4.507
508.16	4.247
508.53	3.507
508.89	4.247
509.25	2.507
509.61	3.247
509.98	4.507
510.34	6.247
510.70	2.507
511.06	5.247
511.43	3.507
511.79	-0.753
512.15	4.507
512.51	1.247
512.88	5.507
513.24	-0.753
513.60	0.507
513.96	3.247
514.33	3.507
514.69	18.247
515.05	4.507
515.41	3.247
515.77	1.507
516.14	7.247
516.50	6.507
516.86	3.247
517.22	-1.493
517.58	2.247
517.95	1.507
518.31	3.247
518.67	1.507
519.03	-1.753
519.39	8.507
519.75	3.247
520.12	2.507
520.48	6.247
520.84	7.507
521.20	-1.753
521.56	1.507
521.92	4.247
522.28	9.507
522.65	5.247
523.01	3.507
523.37	5.247
523.73	1.507
524.09	5.247
524.45	-0.493
524.81	5.247
525.17	-3.493
525.53	-0.753
525.89	2.507
526.26	4.247
526.62	6.507
526.98	6.247
527.34	3.507
527.70	5.247
528.06	4.507
528.42	5.247
528.78	0.507
529.14	2.247
529.50	6.507
529.86	5.247
530.22	0.507
530.58	0.247
530.94	3.507
531.30	5.247
531.66	4.507
532.02	11.247
532.38	5.507
532.75	2.247
533.11	1.507
533.47	5.247
533.83	6.507
534.19	5.247
534.55	5.507
534.91	8.247
535.27	3.507
535.62	7.247
535.98	3.507
536.34	-0.753
536.70	-1.493
537.06	5.247
537.42	-2.493
537.78	3.247
538.14	-3.493
538.50	1.247
538.86	2.507
539.22	0.247
539.58	1.507
539.94	4.247
540.30	5.507
540.66	2.247
541.02	4.507
541.38	6.247
541.74	0.507
542.10	2.247
542.45	3.507
542.81	7.247
543.17	9.507
543.53	2.247
543.89	6.507
544.25	5.247
544.61	0.507
544.97	2.247
545.33	-0.493
545.68	5.247
546.04	7.507
546.40	6.247
546.76	4.507
547.12	4.247
547.48	3.507
547.84	2.247
548.19	-0.493
548.55	0.247
548.91	3.507
549.27	3.247
549.63	1.507
549.99	0.247
550.34	-1.493
550.70	3.247
551.06	-0.493
551.42	3.247
551.78	-0.493
552.13	3.247
552.49	4.507
552.85	6.247
553.21	1.507
553.57	3.247
553.92	5.507
554.28	3.247
554.64	1.507
555.00	5.247
555.35	3.507
555.71	2.247
556.07	4.507
556.43	5.247
556.78	4.507
557.14	4.247
557.50	6.507
557.86	2.247
558.21	1.507
558.57	2.247
558.93	3.507
559.28	8.247
559.64	5.507
560.00	3.247
560.36	3.507
560.71	-0.753
561.07	-0.493
561.43	-1.753
561.78	3.507
562.14	6.247
562.50	4.507
562.85	-0.753
563.21	0.507
563.57	4.247
563.92	-2.493
564.28	6.247
564.64	5.507
564.99	4.247
565.35	1.507
565.71	10.247
566.06	1.507
566.42	7.247
566.78	6.507
567.13	5.247
567.49	7.507
567.84	5.247
568.20	3.507
568.56	8.247
568.91	9.507
569.27	7.247
569.62	4.507
569.98	4.247
570.34	8.507
570.69	12.247
571.05	6.507
571.40	3.247
571.76	12.507
572.12	6.247
572.47	8.507
572.83	7.247
573.18	9.507
573.54	12.247
573.89	7.507
574.25	12.247
574.60	4.507
574.96	10.247
575.31	9.507
575.67	13.247
576.02	10.507
576.38	14.247
576.74	13.507
577.09	10.247
577.45	14.507
577.80	18.247
578.16	18.507
578.51	11.247
578.86	8.507
579.22	20.247
579.57	13.507
579.93	16.247
580.28	19.507
580.64	17.247
580.99	15.507
581.35	9.247
581.70	10.507
582.06	15.247
582.41	20.507
582.77	19.247
583.12	21.507
583.47	19.247
583.83	25.507
584.18	25.247
584.54	21.507
584.89	25.247
585.25	17.507
585.60	21.247
585.95	21.507
586.31	27.247
586.66	23.507
587.02	29.247
587.37	26.507
587.72	33.247
588.08	34.507
588.43	31.247
588.78	31.507
589.14	38.247
589.49	33.507
589.85	36.247
590.20	40.507
590.55	36.247
590.91	46.507
591.26	47.247
591.61	41.507
591.97	46.247
592.32	44.507
592.67	48.247
593.03	58.507
593.38	53.247
593.73	60.507
594.09	65.247
594.44	56.507
594.79	62.247
595.14	73.507
595.50	74.247
595.85	73.507
596.20	79.247
596.56	86.507
596.91	79.247
597.26	92.507
597.61	94.247
597.97	102.507
598.32	104.247
598.67	97.507
599.02	104.247
599.38	115.507
599.73	120.247
600.08	126.507
600.43	134.247
600.79	132.507
601.14	127.247
601.49	137.507
601.84	142.247
602.19	150.507
602.55	166.247
602.90	174.507
603.25	174.247
603.60	185.507
603.95	191.247
604.31	197.507
604.66	206.247
605.01	224.507
605.36	235.247
605.71	253.507
606.06	269.247
606.42	275.507
606.77	278.247
607.12	284.507
607.47	307.247
607.82	301.507
608.17	348.247
608.52	353.507
608.88	364.247
609.23	390.507
609.58	393.247
609.93	405.507
610.28	418.247
610.63	446.507
610.98	463.247
611.33	481.507
611.69	506.247
612.04	531.507
612.39	557.247
612.74	564.507
613.09	600.247
613.44	616.507
613.79	654.247
614.14	680.507
614.49	709.247
614.84	740.507
615.19	775.247
615.54	802.507
615.89	815.247
616.24	865.507
616.59	899.247
616.94	941.507
617.29	975.247
617.64	996.507
617.99	1077.247
618.35	1085.507
618.70	1144.247
619.05	1160.507
619.40	1228.247
619.75	1259.507
620.10	1280.247
620.45	1323.507
620.79	1418.247
621.14	1448.507
621.49	1496.247
621.84	1534.507
622.19	1578.247
622.54	1716.507
622.89	1719.247
623.24	1798.507
623.59	1904.247
623.94	1973.507
624.29	2038.247
624.64	2100.507
624.99	2216.247
625.34	2309.507
625.69	2385.247
626.04	2532.507
626.39	2559.247
626.74	2640.507
627.08	2759.247
627.43	2849.507
627.78	2940.247
628.13	3029.507
628.48	3102.247
628.83	3140.507
629.18	3195.247
629.53	3205.507
629.88	3238.247
630.22	3229.507
630.57	3226.247
630.92	3211.507
631.27	3169.247
631.62	3165.507
631.97	3134.247
632.32	3077.507
632.66	3025.247
633.01	2967.507
633.36	2883.247
633.71	2814.507
634.06	2726.247
634.41	2631.507
634.75	2536.247
635.10	2433.507
635.45	2309.247
635.80	2215.507
636.15	2070.247
636.49	2034.507
636.84	1935.247
637.19	1870.507
637.54	1805.247
637.88	1671.507
638.23	1630.247
638.58	1536.507
638.93	1461.247
639.27	1366.507
639.62	1310.247
639.97	1238.507
640.32	1185.247
640.66	1106.507
641.01	1046.247
641.36	1000.507
641.71	940.247
642.05	877.507
642.40	844.247
642.75	780.507
643.10	751.247
643.44	694.507
643.79	664.247
644.14	638.507
644.48	604.247
644.83	582.507
645.18	542.247
645.52	518.507
645.87	498.247
646.22	464.507
646.56	438.247
646.91	423.507
647.26	401.247
647.60	371.507
647.95	360.247
648.30	338.507
648.64	326.247
648.99	292.507
649.33	284.247
649.68	252.507
650.03	240.247
650.37	228.507
650.72	207.247
651.07	200.507
651.41	183.247
651.76	170.507
652.10	154.247
652.45	150.507
652.80	138.247
653.14	135.507
653.49	130.247
653.83	130.507
654.18	120.247
654.52	108.507
654.87	96.247
655.22	98.507
655.56	94.247
655.91	81.507
656.25	80.247
656.60	76.507
656.94	82.247
657.29	73.507
657.63	70.247
657.98	63.507
658.32	60.247
658.67	58.507
659.01	52.247
659.36	58.507
659.70	48.247
660.05	49.507
660.39	45.247
660.74	46.507
661.08	43.247
661.43	36.507
661.77	36.247
662.12	40.507
662.46	28.247
662.81	30.507
663.15	30.247
663.49	30.507
663.84	24.247
664.18	24.507
664.53	11.247
664.87	25.507
665.22	21.247
665.56	17.507
665.90	18.247
666.25	17.507
666.59	16.247
666.94	14.507
667.28	21.247
667.63	14.507
667.97	16.247
668.31	14.507
668.66	14.247
669.00	13.507
669.34	10.247
669.69	10.507
670.03	12.247
670.38	7.507
670.72	9.247
671.06	8.507
671.41	13.247
671.75	12.507
672.09	17.247
672.44	15.507
672.78	9.247
673.12	9.507
673.47	10.247
673.81	11.507
674.15	9.247
674.49	13.507
674.84	6.247
675.18	6.507
675.52	9.247
675.87	2.507
676.21	5.247
676.55	15.507
676.89	8.247
677.24	8.507
677.58	2.247
677.92	0.507
678.27	5.247
678.61	2.507
678.95	4.247
679.29	8.507
679.64	3.247
679.98	2.507
680.32	6.247
680.66	1.507
681.00	9.247
681.35	3.507
681.69	5.247
682.03	2.507
682.37	5.247
682.71	8.507
683.06	1.247
683.40	1.507
683.74	3.247
684.08	4.507
684.42	2.247
684.77	5.507
685.11	4.247
685.45	2.507
685.79	4.247
686.13	4.507
686.47	3.247
686.81	5.507
687.16	-0.753
687.50	-0.493
687.84	3.247
688.18	0.507
688.52	3.247
688.86	5.507
689.20	-0.753
689.54	0.507
689.89	4.247
690.23	2.507
690.57	-1.753
690.91	1.507
691.25	9.247
691.59	1.507
691.93	1.247
692.27	2.507
692.61	4.247
692.95	4.507
693.29	4.247
693.63	1.507
693.97	1.247
694.32	6.507
694.66	0.247
695.00	4.507
695.34	4.247
695.68	2.507
696.02	5.247
696.36	-1.493
696.70	6.247
697.04	3.507
697.38	4.247
697.72	3.507
698.06	2.247
698.40	2.507
698.74	9.247
699.08	2.507
699.42	0.247
699.76	-2.493
700.10	4.247
700.44	3.507
700.78	3.247
701.11	2.507
701.45	4.247
701.79	1.507
702.13	6.247
702.47	3.507
702.81	-2.753
703.15	2.507
703.49	2.247
703.83	5.507
704.17	2.247
704.51	4.507
704.85	5.247
705.19	0.507
705.52	4.247
705.86	7.507
706.20	1.247
706.54	3.507
706.88	5.247
707.22	0.507
707.56	7.247
707.90	3.507
708.23	-4.753
708.57	1.507
708.91	-3.753
709.25	-0.493
709.59	4.247
709.93	5.507
710.27	1.247
710.60	1.507
710.94	5.247
711.28	6.507
711.62	2.247
711.96	2.507
712.29	4.247
712.63	2.507
712.97	4.247
713.31	2.507
713.65	3.247
713.98	3.507
714.32	4.247
714.66	-0.493
715.00	3.247
715.33	0.507
715.67	7.247
716.01	5.507
716.35	8.247
716.68	6.507
717.02	4.247
717.36	1.507
717.70	6.247
718.03	3.507
718.37	1.247
718.71	2.507
719.05	1.247
719.38	1.507
719.72	5.247
720.06	2.507
720.39	7.247
720.73	1.507
721.07	5.247
721.40	2.507
721.74	4.247
722.08	4.507
722.41	1.247
722.75	3.507
723.09	0.247
723.42	2.507
723.76	4.247
724.10	1.507
724.43	3.247
724.77	3.507
725.11	5.247
725.44	4.507
725.78	4.247
726.11	-1.493
726.45	0.247
726.79	9.507
727.12	5.247
727.46	5.507
727.79	2.247
728.13	2.507
728.47	6.247
728.80	4.507
729.14	5.247
729.47	2.507
729.81	1.247
730.14	-0.493
730.48	4.247
730.82	0.507
731.15	7.247
731.49	6.507
731.82	6.247
732.16	2.507
732.49	4.247
732.83	5.507
733.16	4.247
733.50	0.507
733.83	3.247
734.17	0.507
734.50	3.247
734.84	5.507
735.17	2.247
735.51	-0.493
735.84	9.247
736.18	4.507
736.51	6.247
736.85	5.507
737.18	1.247
737.52	4.507
737.85	0.247
738.19	4.507
738.52	5.247
738.85	5.507
739.19	5.247
739.52	0.507
739.86	1.247
740.19	-0.493
740.53	1.247
740.86	6.507
741.19	7.247
741.53	3.507
741.86	6.247
742.20	3.507
742.53	3.247
742.86	5.507
743.20	4.247
743.53	-2.493
743.86	0.247
744.20	4.507
744.53	6.247
744.86	0.507
745.20	4.247
745.53	2.507
745.87	10.247
746.20	0.507
746.53	5.247
746.87	-1.493
747.20	1.247
747.53	0.507
747.86	6.247
748.20	1.507
748.53	6.247
748.86	7.507
749.20	0.247
749.53	6.507
749.86	2.247
750.20	6.507
750.53	3.247
750.86	4.507
751.19	3.247
751.53	5.507
751.86	6.247
752.19	4.507
752.52	3.247
752.86	-0.493
753.19	3.247
753.52	4.507
753.85	1.247
754.19	4.507
754.52	2.247
754.85	2.507
755.18	3.247
755.51	8.507
755.85	4.247
756.18	-0.493
756.51	3.247
756.84	5.507
757.17	1.247
757.51	4.507
757.84	2.247
758.17	6.507
758.50	6.247
758.83	7.507
759.16	2.247
759.49	3.507
759.83	0.247
760.16	1.507
760.49	8.247
760.82	3.507
761.15	2.247
761.48	3.507
761.81	7.247
762.14	-2.493
762.48	8.247
762.81	4.507
763.14	5.247
763.47	4.507
763.80	3.247
764.13	4.507
764.46	3.247
764.79	-1.493
765.12	6.247
765.45	6.507
765.78	6.247
766.11	2.507
766.44	-0.753
766.78	3.507
767.11	7.247
767.44	3.507
767.77	1.247
768.10	1.507
768.43	4.247
768.76	6.507
769.09	6.247
769.42	4.507
769.75	2.247
770.08	4.507
770.41	3.247
770.74	5.507
771.07	8.247
771.40	9.507
771.73	5.247
772.06	4.507
772.39	5.247
772.71	3.507
773.04	2.247
773.37	8.507
773.70	8.247
774.03	-0.493
774.36	-0.753
774.69	0.507
775.02	6.247
775.35	-0.493
775.68	3.247
776.01	1.507
776.34	4.247
776.67	3.507
777.00	4.247
777.32	0.507
777.65	4.247
777.98	1.507
778.31	3.247
778.64	1.507
778.97	6.247
779.30	1.507
779.63	3.247
779.95	4.507
780.28	9.247
780.61	1.507
780.94	5.247
781.27	2.507
781.60	2.247
781.92	5.507
782.25	6.247
782.58	1.507
782.91	9.247
783.24	0.507
783.56	5.247
783.89	7.507
784.22	6.247
784.55	1.507
784.88	6.247
785.20	0.507
785.53	-0.753
785.86	3.507
786.19	4.247
786.51	-1.493
786.84	6.247
787.17	2.507
787.50	-0.753
787.82	-3.493
788.15	4.247
788.48	-1.493
788.81	2.247
789.13	3.507
789.46	7.247
789.79	3.507
790.11	3.247
790.44	8.507
790.77	4.247
791.09	2.507
791.42	5.247
791.75	6.507
792.08	1.247
792.40	3.507
792.73	3.247
793.06	4.507
793.38	6.247
793.71	1.507
794.03	4.247
794.36	1.507
794.69	5.247
795.01	3.507
795.34	4.247
795.67	-1.493
795.99	0.247
796.32	0.507
796.64	6.247
796.97	0.507
797.30	0.247
797.62	0.507
797.95	2.247
798.27	2.507
798.60	5.247
798.93	-0.493
799.25	4.247
799.58	0.507
799.90	1.247
800.23	0.507
800.55	4.247
800.88	6.507
801.20	3.247
801.53	4.507
801.86	6.247
802.18	4.507
802.51	1.247
802.83	5.507
803.16	3.247
803.48	4.507
803.81	0.247
804.13	4.507
804.46	12.247
804.78	-4.493
805.11	4.247
805.43	3.507
805.75	6.247
806.08	5.507
806.40	11.247
806.73	10.507
807.05	6.247
807.38	4.507
807.70	0.247
808.03	6.507
808.35	1.247
808.67	0.507
809.00	3.247
809.32	6.507
809.65	3.247
809.97	4.507
810.30	7.247
810.62	1.507
810.94	5.247
811.27	1.507
811.59	5.247
811.91	2.507
812.24	8.247
812.56	-0.493
812.89	3.247
813.21	1.507
813.53	6.247
813.86	0.507
814.18	7.247
814.50	1.507
814.83	0.247
815.15	6.507
815.47	6.247
815.80	3.507
816.12	1.247
816.44	4.507
816.77	1.247
817.09	0.507
817.41	3.247
817.73	0.507
818.06	1.247
818.38	-2.493
818.70	4.247
819.03	3.507
819.35	4.247
819.67	1.507
819.99	5.247
820.32	0.507
820.64	1.247
820.96	3.507
821.28	1.247
821.61	1.507
821.93	6.247
822.25	-0.493
822.57	7.247
822.89	2.507
823.22	4.247
823.54	3.507
823.86	0.247
824.18	0.507
824.50	4.247
824.83	2.507
825.15	3.247
825.47	4.507
825.79	7.247
826.11	4.507
826.43	6.247
826.76	3.507
827.08	2.247
827.40	5.507
827.72	6.247
828.04	3.507
828.36	6.247
828.68	0.507
829.00	3.247
829.33	9.507
829.65	5.247
829.97	2.507
830.29	5.247
830.61	0.507
830.93	7.247
831.25	6.507
831.57	2.247
831.89	-0.493
832.21	3.247
832.53	1.507
832.85	2.247
833.18	5.507
833.50	3.247
833.82	7.507
834.14	5.247
834.46	2.507
834.78	5.247
835.10	3.507
835.42	2.247
835.74	8.507
836.06	4.247
836.38	3.507
836.70	6.247
837.02	-2.493
837.34	8.247
837.66	2.507
837.98	4.247
838.30	5.507
838.62	-2.753
838.94	5.507
839.26	4.247
839.58	0.507
839.89	8.247
840.21	2.507
840.53	11.247
840.85	1.507
841.17	1.247
841.49	-0.493
841.81	9.247
842.13	9.507
842.45	8.247
842.77	1.507
843.09	3.247
843.41	3.507
843.72	3.247
844.04	1.507
844.36	-0.753
844.68	9.507
845.00	4.247
845.32	2.507
845.64	3.247
845.96	3.507
846.27	5.247
846.59	2.507
846.91	6.247
847.23	7.507
847.55	7.247
847.87	5.507
848.18	4.247
848.50	1.507
848.82	2.247
849.14	7.507
849.46	-0.753
849.77	-2.493
850.09	1.247
850.41	1.507
850.73	2.247
851.04	5.507
851.36	4.247
851.68	4.507
852.00	3.247
852.32	8.507
852.63	6.247
852.95	1.507
853.27	1.247
853.58	-1.493
853.90	0.247
854.22	7.507
854.54	2.247
854.85	6.507
855.17	2.247
855.49	2.507
855.80	2.247
856.12	2.507
856.44	3.247
856.76	8.507
857.07	3.247
857.39	3.507
857.71	5.247
858.02	1.507
858.34	6.247
858.65	-0.493
858.97	0.247
859.29	0.507
859.60	3.247
859.92	5.507
860.24	2.247
860.55	-1.493
860.87	2.247
861.19	2.507
861.50	0.247
861.82	4.507
862.13	4.247
862.45	-4.493
862.77	-2.753
863.08	0.507
863.40	5.247
863.71	6.507
864.03	1.247
864.34	-1.493
864.66	5.247
864.97	2.507
865.29	3.247
865.61	2.507
865.92	5.247
866.24	4.507
866.55	3.247
866.87	4.507
867.18	6.247
867.50	6.507
867.81	7.247
868.13	5.507
868.44	6.247
868.76	3.507
869.07	1.247
869.39	2.507
869.70	0.247
870.02	-4.493
870.33	4.247
870.64	3.507
870.96	6.247
871.27	1.507
871.59	1.247
871.90	-0.493
872.22	0.247
872.53	2.507
872.85	3.247
873.16	-0.493
873.47	1.247
873.79	3.507
874.10	2.247
874.42	2.507
874.73	3.247
875.04	6.507
875.36	5.247
875.67	3.507
875.98	8.247
876.30	2.507
876.61	7.247
876.93	6.507
877.24	3.247
877.55	2.507
877.87	4.247
878.18	7.507
878.49	6.247
878.81	5.507
879.12	8.247
879.43	3.507
879.75	4.247
880.06	-1.493
880.37	6.247
880.68	3.507
881.00	5.247
881.31	7.507
881.62	4.247
881.94	1.507
882.25	3.247
882.56	-0.493
882.87	3.247
883.19	7.507
883.50	8.247
883.81	2.507
884.12	2.247
884.44	1.507
884.75	6.247
885.06	2.507
885.37	8.247
885.68	4.507
886.00	5.247
886.31	7.507
886.62	6.247
886.93	3.507
887.24	1.247
887.56	6.507
887.87	7.247
888.18	1.507
888.49	3.247
888.80	7.507
889.11	1.247
889.43	0.507
889.74	2.247
890.05	2.507
890.36	9.247
890.67	1.507
890.98	1.247
891.29	5.507
891.61	3.247
891.92	0.507
892.23	2.247
892.54	3.507
892.85	6.247
893.16	-0.493
893.47	5.247
893.78	3.507
894.09	7.247
894.40	2.507
894.71	5.247
895.02	2.507
895.33	6.247
895.65	-0.493
895.96	3.247
896.27	4.507
896.58	7.247
896.89	1.507
897.20	10.247
897.51	5.507
897.82	10.247
898.13	0.507
898.44	6.247
898.75	5.507
899.06	2.247
899.37	1.507
899.68	2.247
899.99	4.507
900.30	2.247
900.61	5.507
900.92	0.247
901.23	0.507
901.53	-1.753
901.84	-3.493
902.15	7.247
902.46	0.507
902.77	1.247
903.08	2.507
903.39	1.247
903.70	0.507
904.01	4.247
904.32	2.507
904.63	1.247
904.94	1.507
905.24	6.247
905.55	-0.493
905.86	2.247
906.17	7.507
906.48	3.247
906.79	3.507
907.10	11.247
907.40	1.507
907.71	6.247
908.02	1.507
908.33	-0.753
908.64	2.507
908.95	5.247
909.25	-0.493
909.56	3.247
909.87	3.507
910.18	4.247
910.49	-0.493
910.79	4.247
911.10	1.507
911.41	4.247
911.72	3.507
912.03	2.247
912.33	6.507
912.64	2.247
912.95	-0.493
913.26	-0.753
913.56	1.507
913.87	1.247
914.18	5.507
914.49	5.247
914.79	5.507
915.10	4.247
915.41	2.507
915.71	6.247
916.02	5.507
916.33	4.247
916.64	1.507
916.94	2.247
917.25	5.507
917.56	7.247
917.86	1.507
918.17	1.247
918.48	2.507
918.78	0.247
919.09	1.507
919.40	3.247
919.70	-2.493
920.01	3.247
920.31	7.507
920.62	-2.753
920.93	0.507
921.23	-0.753
921.54	-2.493
921.85	-0.753
922.15	-2.493
922.46	-0.753
922.76	1.507
923.07	6.247
923.37	6.507
923.68	2.247
923.99	4.507
924.29	4.247
924.60	7.507
924.90	-0.753
925.21	-1.493
925.51	5.247
925.82	-0.493
926.12	4.247
926.43	2.507
926.73	4.247
927.04	0.507
927.34	4.247
927.65	-0.493
927.95	4.247
928.26	5.507
928.56	8.247
928.87	2.507
929.17	2.247
929.48	-0.493
929.78	4.247
930.09	3.507
930.39	1.247
930.70	2.507
931.00	7.247
931.31	4.507
931.61	-0.753
931.91	3.507
932.22	-4.753
932.52	3.507
932.83	3.247
933.13	-3.493
933.44	-1.753
933.74	2.507
934.04	-1.753
934.35	-4.493
934.65	4.247
934.95	-0.493
935.26	6.247
935.56	0.507
935.87	6.247
936.17	1.507
936.47	4.247
936.78	5.507
937.08	3.247
937.38	2.507
937.69	4.247
937.99	0.507
938.29	5.247
938.60	4.507
938.90	-1.753
939.20	1.507
939.50	3.247
939.81	2.507
940.11	0.247
940.41	-2.493
940.72	3.247
941.02	6.507
941.32	4.247
941.62	0.507
941.93	2.247
942.23	4.507
942.53	1.247
942.83	1.507
943.14	4.247
943.44	2.507
943.74	1.247
944.04	2.507
944.34	0.247
944.65	0.507
944.95	4.247
945.25	4.507
945.55	3.247
945.85	-1.493
946.16	3.247
946.46	5.507
946.76	5.247
947.06	1.507
947.36	4.247
947.66	1.507
947.97	3.247
948.27	5.507
948.57	6.247
948.87	12.507
949.17	7.247
949.47	3.507
949.77	2.247
950.07	2.507
950.38	3.247
950.68	2.507
950.98	4.247
951.28	-1.493
951.58	-7.753
951.88	-0.493
952.18	0.247
952.48	-2.493
952.78	0.247
953.08	2.507
953.38	4.247
953.68	0.507
953.98	2.247
954.28	5.507
954.58	3.247
954.88	2.507
955.18	6.247
955.48	4.507
955.78	3.247
956.08	3.507
956.38	6.247
956.68	4.507
956.98	4.247
957.28	1.507
957.58	4.247
957.88	5.507
958.18	3.247
958.48	8.507
958.78	4.247
959.08	4.507
959.38	5.247
959.68	2.507
959.98	0.247
960.28	2.507
960.58	4.247
960.88	6.507
961.18	-3.753
961.48	2.507
961.77	6.247
962.07	-1.493
962.37	7.247
962.67	0.507
962.97	0.247
963.27	4.507
963.57	1.247
963.87	3.507
964.16	6.247
964.46	-0.493
964.76	-0.753
965.06	6.507
965.36	5.247
965.66	3.507
965.95	1.247
966.25	0.507
966.55	7.247
966.85	7.507
967.15	7.247
967.44	3.507
967.74	1.247
968.04	2.507
968.34	-2.753
968.64	-0.493
968.93	2.247
969.23	4.507
969.53	5.247
969.83	4.507
970.12	1.247
970.42	-2.493
970.72	1.247
971.02	-0.493
971.31	5.247
971.61	0.507
971.91	7.247
972.20	-1.493
972.50	2.247
972.80	4.507
973.10	3.247
973.39	4.507
973.69	4.247
973.99	2.507
974.28	1.247
974.58	-0.493
974.88	4.247
975.17	4.507
975.47	-0.753
975.77	3.507
976.06	5.247
976.36	6.507
976.65	2.247
976.95	6.507
977.25	3.247
977.54	0.507
977.84	2.247
978.13	3.507
978.43	7.247
978.73	1.507
979.02	6.247
979.32	5.507
979.61	2.247
979.91	1.507
980.21	12.247
980.50	5.507
980.80	4.247
981.09	4.507
981.39	5.247
981.68	2.507
981.98	4.247
982.27	0.507
982.57	6.247
982.86	4.507
983.16	2.247
983.45	5.507
983.75	3.247
984.04	5.507
984.34	6.247
984.63	2.507
984.93	6.247
985.22	4.507
985.52	8.247
985.81	-0.493
986.11	8.247
986.40	-0.493
986.69	6.247
986.99	-0.493
987.28	3.247
987.58	-0.493
987.87	5.247
988.17	-0.493
988.46	2.247
988.75	8.507
989.05	3.247
989.34	6.507
989.64	5.247
989.93	-1.493
990.22	2.247
990.52	3.507
990.81	4.247
991.10	5.507
991.40	3.247
991.69	9.507
991.98	-0.753
992.28	1.507
992.57	6.247
992.86	3.507
993.16	9.247
993.45	-0.493
993.74	3.247
994.04	1.507
994.33	1.247
994.62	1.507
994.92	4.247
995.21	2.507
995.50	10.247
995.79	4.507
996.09	7.247
996.38	2.507
996.67	7.247
996.96	4.507
997.26	4.247
997.55	8.507
997.84	3.247
998.13	2.507
998.43	9.247
998.72	1.507
999.01	8.247
999.30	5.507
999.59	9.247
999.89	7.507
1000.18	11.247
1000.47	5.507
1000.76	-3.753
1001.05	1.507
1001.34	-2.753
1001.64	3.507
1001.93	4.247
1002.22	4.507
1002.51	1.247
1002.80	8.507
1003.09	3.247
1003.38	4.507
1003.68	3.247
1003.97	2.507
1004.26	3.247
1004.55	1.507
1004.84	2.247
1005.13	4.507
1005.42	8.247
1005.71	6.507
1006.00	2.247
1006.29	7.507
1006.58	4.247
1006.87	2.507
1007.17	-0.753
1007.46	0.507
1007.75	7.247
1008.04	3.507
1008.33	6.247
1008.62	1.507
1008.91	6.247
1009.20	4.507
1009.49	11.247
1009.78	3.507
1010.07	-5.753
1010.36	4.507
1010.65	3.247
1010.94	3.507
1011.23	4.247
1011.52	-1.493
1011.81	-1.753
1012.10	3.507
1012.39	1.247
1012.67	4.507
1012.96	3.247
1013.25	1.507
1013.54	0.247
1013.83	-2.493
1014.12	3.247
1014.41	1.507
1014.70	4.247
1014.99	2.507
1015.28	-0.753
1015.57	-3.493
1015.86	2.247
1016.14	0.507
1016.43	2.247
1016.72	3.507
1017.01	10.247
1017.30	-0.493
1017.59	6.247
1017.88	7.507
1018.16	6.247
1018.45	8.507
1018.74	-0.753
1019.03	0.507
1019.32	3.247
1019.60	2.507
1019.89	-0.753
1020.18	-0.493
1020.47	0.247
1020.76	2.507
1021.04	4.247
1021.33	7.507
1021.62	6.247
1021.91	7.507
1022.20	2.247
1022.48	1.507
1022.77	4.247
1023.06	6.507
1023.35	2.247
1023.63	1.507
1023.92	2.247
1024.21	1.507
1024.49	2.247
1024.78	-0.493
1025.07	2.247
1025.36	4.507
1025.64	4.247
1025.93	7.507
1026.22	5.247
1026.50	4.507
1026.79	3.247
1027.08	3.507
1027.36	3.247
1027.65	5.507
1027.94	9.247
1028.22	0.507
1028.51	7.247
1028.79	0.507
1029.08	4.247
1029.37	3.507
1029.65	1.247
1029.94	-1.493
1030.23	2.247
1030.51	4.507
1030.80	5.247
1031.08	0.507
1031.37	10.247
1031.65	0.507
1031.94	0.247
1032.23	-0.493
1032.51	9.247
1032.80	4.507
1033.08	1.247
1033.37	3.507
1033.65	5.247
1033.94	3.507
1034.22	1.247
1034.51	-1.493
1034.79	5.247
1035.08	2.507
1035.36	4.247
1035.65	6.507
1035.93	2.247
1036.22	1.507
1036.50	0.247
1036.79	-0.493
1037.07	0.247
1037.36	-0.493
1037.64	2.247
1037.93	2.507
1038.21	5.247
1038.50	2.507
1038.78	4.247
1039.06	-2.493
1039.35	2.247
1039.63	4.507
1039.92	1.247
1040.20	-0.493
1040.48	3.247
1040.77	1.507
1041.05	3.247
1041.34	7.507
1041.62	5.247
1041.90	-0.493
1042.19	5.247
1042.47	1.507
1042.75	5.247
1043.04	4.507
1043.32	1.247
1043.60	0.507
1043.89	4.247
1044.17	-1.493
1044.45	4.247
1044.74	-1.493
1045.02	4.247
1045.30	3.507
1045.59	1.247
1045.87	6.507
1046.15	0.247
1046.44	1.507
1046.72	3.247
1047.00	4.507
1047.28	7.247
1047.57	4.507
1047.85	3.247
1048.13	5.507
1048.41	4.247
1048.70	0.507
1048.98	-0.753
1049.26	3.507
1049.54	1.247
1049.82	2.507
1050.11	1.247
1050.39	-2.493
1050.67	9.247
1050.95	-1.493
1051.23	0.247
1051.52	1.507
1051.80	9.247
1052.08	0.507
>>>>>End Spectral Data<<<<<
