OOIBase32 Version 2.0.5.2 Data File
++++++++++++++++++++++++++++++++++++
Date: 08-04-2009, 11:45:09
User: Valued Ocean Optics Customer
Spectrometer Serial Number: I2J345
Spectrometer Channel: Master
Integration Time (msec): 100
Spectra Averaged: 1
Boxcar Smoothing: 0
Correct for Electrical Dark: Enabled
Time Normalized: Disabled
Dual-beam Reference: Disabled
Reference Channel: Master
Temperature: Not acquired
Spectrometer Type: S2000
ADC Type: USB2000
Number of Pixels in File: 2048
Graph Title: 
>>>>>Begin Spectral Data<<<<<
370.53	0.000
370.90	0.000
371.28	-2.343
371.66	1.578
372.03	-0.343
372.41	1.578
372.79	1.657
373.16	4.578
373.54	5.657
373.92	5.578
374.29	0.657
374.67	-1.422
375.05	3.657
375.42	-3.422
375.80	1.657
376.18	2.578
376.55	7.657
376.93	2.578
377.31	2.657
377.68	0.578
378.06	1.657
378.43	-0.422
378.81	5.657
379.19	-2.422
379.56	0.657
379.94	3.578
380.31	6.657
380.69	0.578
381.07	4.657
381.44	5.578
381.82	6.657
382.19	-1.422
382.57	0.657
382.94	-2.422
383.32	6.657
383.70	4.578
384.07	3.657
384.45	5.578
384.82	2.657
385.20	3.578
385.57	0.657
385.95	3.578
386.32	1.657
386.70	4.578
387.07	5.657
387.45	5.578
387.83	4.657
388.20	7.578
388.58	6.657
388.95	4.578
389.33	1.657
389.70	1.578
390.08	6.657
390.45	4.578
390.83	7.657
391.20	2.578
391.58	3.657
391.95	1.578
392.32	0.657
392.70	-0.422
393.07	4.657
393.45	-1.422
393.82	5.657
394.20	0.578
394.57	2.657
394.95	3.578
395.32	1.657
395.70	4.578
396.07	7.657
396.45	2.578
396.82	7.657
397.19	4.578
397.57	11.657
397.94	1.578
398.32	4.657
398.69	4.578
399.07	12.657
399.44	5.578
399.81	5.657
400.19	3.578
400.56	1.657
400.94	1.578
401.31	5.657
401.68	8.578
402.06	6.657
402.43	5.578
402.80	6.657
403.18	4.578
403.55	9.657
403.93	5.578
404.30	5.657
404.67	4.578
405.05	3.657
405.42	0.578
405.79	2.657
406.17	6.578
406.54	2.657
406.91	11.578
407.29	-1.343
407.66	1.578
408.03	3.657
408.41	3.578
408.78	0.657
409.15	2.578
409.53	8.657
409.90	2.578
410.27	1.657
410.65	3.578
411.02	3.657
411.39	1.578
411.76	3.657
412.14	4.578
412.51	1.657
412.88	2.578
413.26	2.657
413.63	5.578
414.00	3.657
414.37	6.578
414.75	12.657
415.12	2.578
415.49	3.657
415.86	1.578
416.24	7.657
416.61	8.578
416.98	2.657
417.35	3.578
417.73	1.657
418.10	-2.422
418.47	2.657
418.84	4.578
419.21	6.657
419.59	2.578
419.96	6.657
420.33	6.578
420.70	7.657
421.07	-0.422
421.45	7.657
421.82	4.578
422.19	5.657
422.56	9.578
422.93	6.657
423.31	6.578
423.68	8.657
424.05	1.578
424.42	6.657
424.79	6.578
425.16	12.657
425.54	8.578
425.91	6.657
426.28	1.578
426.65	7.657
427.02	2.578
427.39	11.657
427.76	8.578
428.13	6.657
428.51	4.578
428.88	5.657
429.25	2.578
429.62	6.657
429.99	6.578
430.36	6.657
430.73	1.578
431.10	5.657
431.47	6.578
431.85	4.657
432.22	7.578
432.59	12.657
432.96	8.578
433.33	15.657
433.70	8.578
434.07	11.657
434.44	10.578
434.81	9.657
435.18	12.578
435.55	10.657
435.92	10.578
436.29	14.657
436.66	16.578
437.03	15.657
437.40	17.578
437.77	14.657
438.14	17.578
438.52	18.657
438.89	12.578
439.26	20.657
439.63	21.578
440.00	24.657
440.37	18.578
440.74	27.657
441.11	23.578
441.48	21.657
441.85	28.578
442.22	31.657
442.58	27.578
442.95	30.657
443.32	33.578
443.69	43.657
444.06	35.578
444.43	35.657
444.80	42.578
445.17	40.657
445.54	40.578
445.91	48.657
446.28	49.578
446.65	57.657
447.02	57.578
447.39	62.657
447.76	68.578
448.13	66.657
448.50	65.578
448.87	67.657
449.23	87.578
449.60	93.657
449.97	96.578
450.34	97.657
450.71	102.578
451.08	116.657
451.45	117.578
451.82	129.657
452.19	131.578
452.56	149.657
452.92	146.578
453.29	149.657
453.66	155.578
454.03	163.657
454.40	176.578
454.77	189.657
455.14	209.578
455.50	205.657
455.87	232.578
456.24	252.657
456.61	268.578
456.98	280.657
457.35	282.578
457.71	287.657
458.08	318.578
458.45	330.657
458.82	365.578
459.19	364.657
459.55	402.578
459.92	404.657
460.29	461.578
460.66	502.657
461.03	469.578
461.39	554.657
461.76	581.578
462.13	591.657
462.50	635.578
462.87	662.657
463.23	693.578
463.60	770.657
463.97	773.578
464.34	825.657
464.70	863.578
465.07	911.657
465.44	973.578
465.81	1026.657
466.17	1006.578
466.54	1105.657
466.91	1141.578
467.28	1211.657
467.64	1309.578
468.01	1357.657
468.38	1387.578
468.74	1462.657
469.11	1409.578
469.48	1572.657
469.84	1661.578
470.21	1616.657
470.58	1709.578
470.95	1872.657
471.31	1920.578
471.68	1874.657
472.05	1944.578
472.41	2080.657
472.78	2132.579
473.15	2092.657
473.51	2188.579
473.88	2289.657
474.25	2226.579
474.61	2136.657
474.98	2279.579
475.35	2277.657
475.71	2318.579
476.08	2253.657
476.44	2209.579
476.81	2220.657
477.18	2264.579
477.54	2423.657
477.91	2340.579
478.28	2308.657
478.64	2195.579
479.01	2287.657
479.37	2207.579
479.74	2209.657
480.10	2141.579
480.47	2212.657
480.84	2037.578
481.20	2117.657
481.57	2107.579
481.93	2039.657
482.30	2055.579
482.67	2022.657
483.03	1973.578
483.40	1864.657
483.76	1930.578
484.13	1848.657
484.49	1813.578
484.86	1791.657
485.22	1779.578
485.59	1738.657
485.95	1699.578
486.32	1611.657
486.68	1645.578
487.05	1649.657
487.41	1631.578
487.78	1556.657
488.14	1522.578
488.51	1519.657
488.87	1509.578
489.24	1480.657
489.60	1430.578
489.97	1419.657
490.33	1379.578
490.70	1334.657
491.06	1320.578
491.43	1324.657
491.79	1270.578
492.16	1259.657
492.52	1215.578
492.89	1200.657
493.25	1200.578
493.62	1159.657
493.98	1154.578
494.34	1115.657
494.71	1081.578
495.07	1053.657
495.44	1005.578
495.80	985.657
496.17	939.578
496.53	918.657
496.89	874.578
497.26	843.657
497.62	805.578
497.99	788.657
498.35	772.578
498.71	762.657
499.08	725.578
499.44	706.657
499.81	684.578
500.17	668.657
500.53	661.578
500.90	629.657
501.26	602.578
501.62	583.657
501.99	559.578
502.35	547.657
502.71	530.578
503.08	510.657
503.44	512.578
503.80	480.657
504.17	459.578
504.53	462.657
504.89	435.578
505.26	422.657
505.62	417.578
505.98	395.657
506.35	382.578
506.71	375.657
507.07	366.578
507.44	355.657
507.80	342.578
508.16	337.657
508.53	319.578
508.89	319.657
509.25	294.578
509.61	306.657
509.98	296.578
510.34	274.657
510.70	272.578
511.06	257.657
511.43	257.578
511.79	257.657
512.15	241.578
512.51	231.657
512.88	224.578
513.24	224.657
513.60	204.578
513.96	202.657
514.33	189.578
514.69	191.657
515.05	187.578
515.41	183.657
515.77	175.578
516.14	173.657
516.50	171.578
516.86	162.657
517.22	158.578
517.58	155.657
517.95	147.578
518.31	141.657
518.67	137.578
519.03	129.657
519.39	123.578
519.75	127.657
520.12	120.578
520.48	110.657
520.84	122.578
521.20	105.657
521.56	102.578
521.92	99.657
522.28	97.578
522.65	85.657
523.01	92.578
523.37	85.657
523.73	82.578
524.09	81.657
524.45	86.578
524.81	78.657
525.17	74.578
525.53	74.657
525.89	68.578
526.26	70.657
526.62	69.578
526.98	65.657
527.34	62.578
527.70	68.657
528.06	63.578
528.42	57.657
528.78	57.578
529.14	58.657
529.50	51.578
529.86	59.657
530.22	43.578
530.58	56.657
530.94	50.578
531.30	46.657
531.66	40.578
532.02	49.657
532.38	41.578
532.75	43.657
533.11	40.578
533.47	40.657
533.83	35.578
534.19	39.657
534.55	35.578
534.91	30.657
535.27	30.578
535.62	28.657
535.98	25.578
536.34	31.657
536.70	30.578
537.06	27.657
537.42	27.578
537.78	24.657
538.14	24.578
538.50	21.657
538.86	27.578
539.22	22.657
539.58	22.578
539.94	25.657
540.30	20.578
540.66	27.657
541.02	22.578
541.38	24.657
541.74	20.578
542.10	21.657
542.45	15.578
542.81	15.657
543.17	16.578
543.53	17.657
543.89	19.578
544.25	23.657
544.61	15.578
544.97	14.657
545.33	18.578
545.68	16.657
546.04	15.578
546.40	12.657
546.76	14.578
547.12	14.657
547.48	13.578
547.84	15.657
548.19	11.578
548.55	13.657
548.91	7.578
549.27	12.657
549.63	2.578
549.99	12.657
550.34	11.578
550.70	8.657
551.06	8.578
551.42	9.657
551.78	10.578
552.13	10.657
552.49	13.578
552.85	8.657
553.21	11.578
553.57	10.657
553.92	8.578
554.28	5.657
554.64	9.578
555.00	12.657
555.35	8.578
555.71	9.657
556.07	7.578
556.43	4.657
556.78	7.578
557.14	5.657
557.50	7.578
557.86	6.657
558.21	5.578
558.57	8.657
558.93	5.578
559.28	8.657
559.64	4.578
560.00	12.657
560.36	4.578
560.71	4.657
561.07	0.578
561.43	7.657
561.78	8.578
562.14	4.657
562.50	4.578
562.85	3.657
563.21	6.578
563.57	8.657
563.92	3.578
564.28	3.657
564.64	7.578
564.99	5.657
565.35	2.578
565.71	12.657
566.06	7.578
566.42	5.657
566.78	3.578
567.13	7.657
567.49	4.578
567.84	7.657
568.20	7.578
568.56	7.657
568.91	1.578
569.27	5.657
569.62	2.578
569.98	-0.343
570.34	0.578
570.69	4.657
571.05	5.578
571.40	9.657
571.76	6.578
572.12	7.657
572.47	1.578
572.83	3.657
573.18	11.578
573.54	10.657
573.89	8.578
574.25	4.657
574.60	5.578
574.96	5.657
575.31	8.578
575.67	1.657
576.02	2.578
576.38	3.657
576.74	7.578
577.09	3.657
577.45	4.578
577.80	8.657
578.16	5.578
578.51	5.657
578.86	10.578
579.22	6.657
579.57	4.578
579.93	3.657
580.28	9.578
580.64	5.657
580.99	4.578
581.35	5.657
581.70	0.578
582.06	11.657
582.41	2.578
582.77	8.657
583.12	-0.422
583.47	0.657
583.83	-0.422
584.18	-0.343
584.54	4.578
584.89	1.657
585.25	-2.422
585.60	3.657
585.95	2.578
586.31	9.657
586.66	-2.422
587.02	5.657
587.37	-1.422
587.72	0.657
588.08	4.578
588.43	5.657
588.78	3.578
589.14	9.657
589.49	6.578
589.85	9.657
590.20	8.578
590.55	7.657
590.91	5.578
591.26	10.657
591.61	6.578
591.97	7.657
592.32	6.578
592.67	6.657
593.03	5.578
593.38	4.657
593.73	2.578
594.09	3.657
594.44	1.578
594.79	4.657
595.14	-3.422
595.50	-4.343
595.85	3.578
596.20	-0.343
596.56	2.578
596.91	-0.343
597.26	0.578
597.61	5.657
597.97	4.578
598.32	7.657
598.67	9.578
599.02	2.657
599.38	5.578
599.73	3.657
600.08	12.578
600.43	11.657
600.79	6.578
601.14	5.657
601.49	6.578
601.84	6.657
602.19	9.578
602.55	4.657
602.90	7.578
603.25	6.657
603.60	3.578
603.95	-0.343
604.31	5.578
604.66	3.657
605.01	5.578
605.36	7.657
605.71	0.578
606.06	3.657
606.42	4.578
606.77	8.657
607.12	1.578
607.47	1.657
607.82	1.578
608.17	0.657
608.52	3.578
608.88	0.657
609.23	0.578
609.58	0.657
609.93	1.578
610.28	3.657
610.63	1.578
610.98	1.657
611.33	2.578
611.69	3.657
612.04	2.578
612.39	8.657
612.74	3.578
613.09	3.657
613.44	5.578
613.79	7.657
614.14	7.578
614.49	4.657
614.84	1.578
615.19	2.657
615.54	0.578
615.89	5.657
616.24	1.578
616.59	0.657
616.94	0.578
617.29	2.657
617.64	0.578
617.99	0.657
618.35	1.578
618.70	4.657
619.05	-1.422
619.40	5.657
619.75	0.578
620.10	0.657
620.45	-0.422
620.79	2.657
621.14	4.578
621.49	2.657
621.84	-0.422
622.19	2.657
622.54	3.578
622.89	4.657
623.24	7.578
623.59	8.657
623.94	6.578
624.29	5.657
624.64	4.578
624.99	5.657
625.34	3.578
625.69	8.657
626.04	5.578
626.39	4.657
626.74	-2.422
627.08	4.657
627.43	5.578
627.78	4.657
628.13	-2.422
628.48	2.657
628.83	5.578
629.18	4.657
629.53	2.578
629.88	4.657
630.22	7.578
630.57	2.657
630.92	5.578
631.27	7.657
631.62	2.578
631.97	2.657
632.32	1.578
632.66	2.657
633.01	0.578
633.36	1.657
633.71	9.578
634.06	4.657
634.41	3.578
634.75	8.657
635.10	5.578
635.45	5.657
635.80	6.578
636.15	1.657
636.49	0.578
636.84	3.657
637.19	2.578
637.54	4.657
637.88	14.578
638.23	2.657
638.58	5.578
638.93	10.657
639.27	-0.422
639.62	-0.343
639.97	0.578
640.32	3.657
640.66	0.578
641.01	4.657
641.36	1.578
641.71	3.657
642.05	8.578
642.40	6.657
642.75	-4.422
643.10	6.657
643.44	4.578
643.79	1.657
644.14	3.578
644.48	4.657
644.83	4.578
645.18	6.657
645.52	3.578
645.87	2.657
646.22	8.578
646.56	8.657
646.91	2.578
647.26	3.657
647.60	4.578
647.95	1.657
648.30	2.578
648.64	3.657
648.99	5.578
649.33	5.657
649.68	2.578
650.03	0.657
650.37	4.578
650.72	5.657
651.07	-0.422
651.41	0.657
651.76	7.578
652.10	1.657
652.45	1.578
652.80	5.657
653.14	3.578
653.49	5.657
653.83	4.578
654.18	1.657
654.52	4.578
654.87	0.657
655.22	0.578
655.56	4.657
655.91	1.578
656.25	-2.343
656.60	2.578
656.94	1.657
657.29	-1.422
657.63	8.657
657.98	5.578
658.32	2.657
658.67	4.578
659.01	5.657
659.36	3.578
659.70	6.657
660.05	5.578
660.39	4.657
660.74	2.578
661.08	2.657
661.43	4.578
661.77	1.657
662.12	-3.422
662.46	7.657
662.81	3.578
663.15	-1.343
663.49	2.578
663.84	-1.343
664.18	-1.422
664.53	0.657
664.87	2.578
665.22	4.657
665.56	2.578
665.90	6.657
666.25	2.578
666.59	1.657
666.94	2.578
667.28	0.657
667.63	3.578
667.97	1.657
668.31	5.578
668.66	1.657
669.00	4.578
669.34	-0.343
669.69	5.578
670.03	3.657
670.38	3.578
670.72	-0.343
671.06	3.578
671.41	7.657
671.75	1.578
672.09	6.657
672.44	4.578
672.78	-0.343
673.12	2.578
673.47	1.657
673.81	4.578
674.15	-0.343
674.49	5.578
674.84	4.657
675.18	4.578
675.52	6.657
675.87	2.578
676.21	1.657
676.55	4.578
676.89	3.657
677.24	2.578
677.58	4.657
677.92	2.578
678.27	2.657
678.61	1.578
678.95	7.657
679.29	6.578
679.64	11.657
679.98	1.578
680.32	-0.343
680.66	-3.422
681.00	10.657
681.35	6.578
681.69	4.657
682.03	4.578
682.37	4.657
682.71	-0.422
683.06	4.657
683.40	2.578
683.74	0.657
684.08	6.578
684.42	1.657
684.77	3.578
685.11	3.657
685.45	5.578
685.79	2.657
686.13	4.578
686.47	2.657
686.81	5.578
687.16	2.657
687.50	3.578
687.84	4.657
688.18	-1.422
688.52	-0.343
688.86	0.578
689.20	0.657
689.54	3.578
689.89	9.657
690.23	3.578
690.57	1.657
690.91	3.578
691.25	3.657
691.59	-1.422
691.93	0.657
692.27	5.578
692.61	3.657
692.95	2.578
693.29	3.657
693.63	0.578
693.97	8.657
694.32	0.578
694.66	6.657
695.00	3.578
695.34	-1.343
695.68	0.578
696.02	5.657
696.36	2.578
696.70	4.657
697.04	2.578
697.38	-1.343
697.72	1.578
698.06	3.657
698.40	2.578
698.74	0.657
699.08	-2.422
699.42	3.657
699.76	1.578
700.10	5.657
700.44	3.578
700.78	-0.343
701.11	1.578
701.45	6.657
701.79	2.578
702.13	-0.343
702.47	4.578
702.81	2.657
703.15	1.578
703.49	5.657
703.83	2.578
704.17	5.657
704.51	8.578
704.85	8.657
705.19	6.578
705.52	3.657
705.86	-2.422
706.20	4.657
706.54	1.578
706.88	4.657
707.22	2.578
707.56	10.657
707.90	2.578
708.23	2.657
708.57	3.578
708.91	4.657
709.25	-2.422
709.59	6.657
709.93	5.578
710.27	3.657
710.60	10.578
710.94	7.657
711.28	0.578
711.62	3.657
711.96	2.578
712.29	8.657
712.63	4.578
712.97	0.657
713.31	0.578
713.65	2.657
713.98	0.578
714.32	3.657
714.66	4.578
715.00	4.657
715.33	5.578
715.67	8.657
716.01	6.578
716.35	8.657
716.68	1.578
717.02	6.657
717.36	5.578
717.70	8.657
718.03	4.578
718.37	6.657
718.71	5.578
719.05	2.657
719.38	-2.422
719.72	0.657
720.06	-0.422
720.39	-1.343
720.73	1.578
721.07	3.657
721.40	2.578
721.74	2.657
722.08	-0.422
722.41	-2.343
722.75	-0.422
723.09	0.657
723.42	3.578
723.76	4.657
724.10	5.578
724.43	5.657
724.77	4.578
725.11	2.657
725.44	3.578
725.78	0.657
726.11	2.578
726.45	4.657
726.79	2.578
727.12	4.657
727.46	2.578
727.79	-0.343
728.13	-0.422
728.47	5.657
728.80	0.578
729.14	6.657
729.47	3.578
729.81	4.657
730.14	1.578
730.48	0.657
730.82	1.578
731.15	3.657
731.49	5.578
731.82	4.657
732.16	7.578
732.49	1.657
732.83	-3.422
733.16	2.657
733.50	4.578
733.83	11.657
734.17	0.578
734.50	2.657
734.84	4.578
735.17	4.657
735.51	3.578
735.84	2.657
736.18	6.578
736.51	5.657
736.85	4.578
737.18	-2.343
737.52	2.578
737.85	3.657
738.19	2.578
738.52	5.657
738.85	3.578
739.19	2.657
739.52	5.578
739.86	5.657
740.19	7.578
740.53	5.657
740.86	5.578
741.19	0.657
741.53	4.578
741.86	4.657
742.20	-2.422
742.53	6.657
742.86	3.578
743.20	0.657
743.53	2.578
743.86	3.657
744.20	0.578
744.53	2.657
744.86	2.578
745.20	2.657
745.53	2.578
745.87	3.657
746.20	3.578
746.53	2.657
746.87	4.578
747.20	5.657
747.53	8.578
747.86	3.657
748.20	0.578
748.53	5.657
748.86	8.578
749.20	6.657
749.53	2.578
749.86	1.657
750.20	6.578
750.53	4.657
750.86	4.578
751.19	2.657
751.53	2.578
751.86	7.657
752.19	2.578
752.52	5.657
752.86	6.578
753.19	6.657
753.52	4.578
753.85	3.657
754.19	-0.422
754.52	3.657
754.85	1.578
755.18	0.657
755.51	0.578
755.85	4.657
756.18	9.578
756.51	0.657
756.84	6.578
757.17	2.657
757.51	4.578
757.84	5.657
758.17	4.578
758.50	6.657
758.83	7.578
759.16	10.657
759.49	5.578
759.83	7.657
760.16	2.578
760.49	5.657
760.82	6.578
761.15	2.657
761.48	1.578
761.81	0.657
762.14	0.578
762.48	8.657
762.81	1.578
763.14	6.657
763.47	-1.422
763.80	2.657
764.13	4.578
764.46	6.657
764.79	6.578
765.12	6.657
765.45	-0.422
765.78	1.657
766.11	3.578
766.44	0.657
766.78	4.578
767.11	3.657
767.44	-0.422
767.77	4.657
768.10	-4.422
768.43	6.657
768.76	-0.422
769.09	4.657
769.42	3.578
769.75	6.657
770.08	3.578
770.41	2.657
770.74	5.578
771.07	7.657
771.40	3.578
771.73	4.657
772.06	3.578
772.39	8.657
772.71	5.578
773.04	2.657
773.37	1.578
773.70	4.657
774.03	3.578
774.36	2.657
774.69	3.578
775.02	11.657
775.35	1.578
775.68	1.657
776.01	0.578
776.34	0.657
776.67	6.578
777.00	3.657
777.32	2.578
777.65	4.657
777.98	1.578
778.31	0.657
778.64	-2.422
778.97	3.657
779.30	1.578
779.63	3.657
779.95	0.578
780.28	9.657
780.61	-0.422
780.94	3.657
781.27	-2.422
781.60	0.657
781.92	0.578
782.25	3.657
782.58	-0.422
782.91	5.657
783.24	6.578
783.56	1.657
783.89	2.578
784.22	6.657
784.55	1.578
784.88	6.657
785.20	3.578
785.53	2.657
785.86	-2.422
786.19	1.657
786.51	1.578
786.84	-0.343
787.17	4.578
787.50	2.657
787.82	1.578
788.15	3.657
788.48	2.578
788.81	5.657
789.13	6.578
789.46	3.657
789.79	0.578
790.11	-0.343
790.44	5.578
790.77	6.657
791.09	5.578
791.42	4.657
791.75	3.578
792.08	8.657
792.40	7.578
792.73	4.657
793.06	1.578
793.38	1.657
793.71	-3.422
794.03	4.657
794.36	4.578
794.69	1.657
795.01	-1.422
795.34	1.657
795.67	4.578
795.99	5.657
796.32	2.578
796.64	5.657
796.97	1.578
797.30	1.657
797.62	0.578
797.95	4.657
798.27	0.578
798.60	2.657
798.93	3.578
799.25	4.657
799.58	0.578
799.90	1.657
800.23	5.578
800.55	2.657
800.88	0.578
801.20	2.657
801.53	9.578
801.86	7.657
802.18	3.578
802.51	4.657
802.83	1.578
803.16	4.657
803.48	5.578
803.81	9.657
804.13	4.578
804.46	6.657
804.78	4.578
805.11	2.657
805.43	2.578
805.75	4.657
806.08	6.578
806.40	10.657
806.73	10.578
807.05	2.657
807.38	4.578
807.70	0.657
808.03	2.578
808.35	2.657
808.67	-1.422
809.00	2.657
809.32	2.578
809.65	1.657
809.97	-3.422
810.30	7.657
810.62	0.578
810.94	4.657
811.27	0.578
811.59	-2.343
811.91	3.578
812.24	3.657
812.56	-1.422
812.89	2.657
813.21	-2.422
813.53	0.657
813.86	7.578
814.18	3.657
814.50	2.578
814.83	7.657
815.15	3.578
815.47	2.657
815.80	-0.422
816.12	4.657
816.44	-0.422
816.77	1.657
817.09	3.578
817.41	2.657
817.73	7.578
818.06	-3.343
818.38	6.578
818.70	6.657
819.03	2.578
819.35	11.657
819.67	3.578
819.99	2.657
820.32	-0.422
820.64	1.657
820.96	3.578
821.28	3.657
821.61	2.578
821.93	3.657
822.25	5.578
822.57	9.657
822.89	5.578
823.22	3.657
823.54	1.578
823.86	6.657
824.18	5.578
824.50	4.657
824.83	0.578
825.15	0.657
825.47	3.578
825.79	3.657
826.11	6.578
826.43	4.657
826.76	5.578
827.08	2.657
827.40	0.578
827.72	2.657
828.04	1.578
828.36	-0.343
828.68	1.578
829.00	-3.343
829.33	1.578
829.65	0.657
829.97	0.578
830.29	1.657
830.61	0.578
830.93	-0.343
831.25	4.578
831.57	3.657
831.89	4.578
832.21	5.657
832.53	0.578
832.85	2.657
833.18	5.578
833.50	5.657
833.82	4.578
834.14	4.657
834.46	0.578
834.78	3.657
835.10	2.578
835.42	7.657
835.74	5.578
836.06	5.657
836.38	-0.422
836.70	-0.343
837.02	3.578
837.34	5.657
837.66	3.578
837.98	1.657
838.30	-0.422
838.62	1.657
838.94	3.578
839.26	2.657
839.58	1.578
839.89	0.657
840.21	2.578
840.53	1.657
840.85	1.578
841.17	2.657
841.49	4.578
841.81	4.657
842.13	0.578
842.45	3.657
842.77	2.578
843.09	1.657
843.41	2.578
843.72	2.657
844.04	-1.422
844.36	0.657
844.68	3.578
845.00	2.657
845.32	0.578
845.64	1.657
845.96	3.578
846.27	4.657
846.59	1.578
846.91	5.657
847.23	15.578
847.55	1.657
847.87	-1.422
848.18	5.657
848.50	3.578
848.82	5.657
849.14	2.578
849.46	-0.343
849.77	4.578
850.09	3.657
850.41	2.578
850.73	1.657
851.04	2.578
851.36	2.657
851.68	-1.422
852.00	3.657
852.32	10.578
852.63	6.657
852.95	2.578
853.27	6.657
853.58	0.578
853.90	4.657
854.22	3.578
854.54	4.657
854.85	4.578
855.17	6.657
855.49	4.578
855.80	0.657
856.12	-3.422
856.44	5.657
856.76	7.578
857.07	2.657
857.39	0.578
857.71	4.657
858.02	2.578
858.34	4.657
858.65	7.578
858.97	4.657
859.29	5.578
859.60	1.657
859.92	1.578
860.24	3.657
860.55	3.578
860.87	-2.343
861.19	1.578
861.50	-2.343
861.82	5.578
862.13	3.657
862.45	0.578
862.77	5.657
863.08	3.578
863.40	2.657
863.71	2.578
864.03	4.657
864.34	6.578
864.66	3.657
864.97	1.578
865.29	4.657
865.61	2.578
865.92	9.657
866.24	5.578
866.55	6.657
866.87	4.578
867.18	3.657
867.50	1.578
867.81	5.657
868.13	5.578
868.44	2.657
868.76	9.578
869.07	5.657
869.39	0.578
869.70	6.657
870.02	3.578
870.33	4.657
870.64	-4.422
870.96	4.657
871.27	2.578
871.59	3.657
871.90	6.578
872.22	2.657
872.53	3.578
872.85	4.657
873.16	1.578
873.47	2.657
873.79	4.578
874.10	1.657
874.42	-2.422
874.73	3.657
875.04	6.578
875.36	3.657
875.67	1.578
875.98	-0.343
876.30	-1.422
876.61	2.657
876.93	5.578
877.24	5.657
877.55	4.578
877.87	4.657
878.18	8.578
878.49	6.657
878.81	2.578
879.12	6.657
879.43	-3.422
879.75	6.657
880.06	6.578
880.37	4.657
880.68	2.578
881.00	0.657
881.31	1.578
881.62	5.657
881.94	1.578
882.25	0.657
882.56	1.578
882.87	5.657
883.19	2.578
883.50	3.657
883.81	4.578
884.12	-1.343
884.44	4.578
884.75	4.657
885.06	5.578
885.37	3.657
885.68	6.578
886.00	11.657
886.31	9.578
886.62	5.657
886.93	4.578
887.24	4.657
887.56	4.578
887.87	5.657
888.18	3.578
888.49	4.657
888.80	1.578
889.11	-0.343
889.43	2.578
889.74	0.657
890.05	0.578
890.36	2.657
890.67	4.578
890.98	5.657
891.29	5.578
891.61	4.657
891.92	3.578
892.23	5.657
892.54	-1.422
892.85	2.657
893.16	1.578
893.47	1.657
893.78	5.578
894.09	6.657
894.40	5.578
894.71	-2.343
895.02	-1.422
895.33	5.657
895.65	3.578
895.96	2.657
896.27	5.578
896.58	4.657
896.89	1.578
897.20	6.657
897.51	5.578
897.82	6.657
898.13	4.578
898.44	1.657
898.75	3.578
899.06	9.657
899.37	7.578
899.68	5.657
899.99	6.578
900.30	5.657
900.61	3.578
900.92	7.657
901.23	2.578
901.53	8.657
901.84	4.578
902.15	1.657
902.46	0.578
902.77	5.657
903.08	0.578
903.39	1.657
903.70	8.578
904.01	2.657
904.32	4.578
904.63	3.657
904.94	4.578
905.24	0.657
905.55	1.578
905.86	1.657
906.17	6.578
906.48	2.657
906.79	5.578
907.10	-0.343
907.40	-1.422
907.71	8.657
908.02	-0.422
908.33	2.657
908.64	6.578
908.95	5.657
909.25	2.578
909.56	3.657
909.87	1.578
910.18	2.657
910.49	3.578
910.79	4.657
911.10	5.578
911.41	5.657
911.72	4.578
912.03	1.657
912.33	-1.422
912.64	0.657
912.95	2.578
913.26	6.657
913.56	4.578
913.87	3.657
914.18	3.578
914.49	0.657
914.79	3.578
915.10	4.657
915.41	2.578
915.71	1.657
916.02	5.578
916.33	7.657
916.64	3.578
916.94	9.657
917.25	7.578
917.56	7.657
917.86	5.578
918.17	4.657
918.48	5.578
918.78	4.657
919.09	3.578
919.40	8.657
919.70	8.578
920.01	-1.343
920.31	2.578
920.62	4.657
920.93	8.578
921.23	4.657
921.54	6.578
921.85	2.657
922.15	3.578
922.46	6.657
922.76	0.578
923.07	5.657
923.37	3.578
923.68	4.657
923.99	2.578
924.29	5.657
924.60	-3.422
924.90	8.657
925.21	11.578
925.51	6.657
925.82	6.578
926.12	3.657
926.43	3.578
926.73	8.657
927.04	5.578
927.34	4.657
927.65	7.578
927.95	6.657
928.26	7.578
928.56	7.657
928.87	5.578
929.17	7.657
929.48	12.578
929.78	10.657
930.09	5.578
930.39	1.657
930.70	6.578
931.00	7.657
931.31	1.578
931.61	4.657
931.91	1.578
932.22	6.657
932.52	4.578
932.83	6.657
933.13	1.578
933.44	7.657
933.74	4.578
934.04	10.657
934.35	7.578
934.65	11.657
934.95	8.578
935.26	5.657
935.56	9.578
935.87	5.657
936.17	8.578
936.47	7.657
936.78	7.578
937.08	6.657
937.38	7.578
937.69	5.657
937.99	7.578
938.29	11.657
938.60	10.578
938.90	7.657
939.20	12.578
939.50	7.657
939.81	8.578
940.11	8.657
940.41	8.578
940.72	6.657
941.02	5.578
941.32	7.657
941.62	2.578
941.93	10.657
942.23	4.578
942.53	6.657
942.83	6.578
943.14	6.657
943.44	7.578
943.74	8.657
944.04	7.578
944.34	7.657
944.65	9.578
944.95	5.657
945.25	6.578
945.55	7.657
945.85	8.578
946.16	6.657
946.46	11.578
946.76	10.657
947.06	7.578
947.36	8.657
947.66	10.578
947.97	10.657
948.27	10.578
948.57	7.657
948.87	6.578
949.17	7.657
949.47	2.578
949.77	10.657
950.07	6.578
950.38	2.657
950.68	6.578
950.98	7.657
951.28	2.578
951.58	14.657
951.88	11.578
952.18	12.657
952.48	8.578
952.78	9.657
953.08	5.578
953.38	7.657
953.68	11.578
953.98	7.657
954.28	9.578
954.58	5.657
954.88	9.578
955.18	9.657
955.48	7.578
955.78	6.657
956.08	7.578
956.38	5.657
956.68	6.578
956.98	9.657
957.28	5.578
957.58	5.657
957.88	9.578
958.18	4.657
958.48	5.578
958.78	3.657
959.08	11.578
959.38	4.657
959.68	0.578
959.98	6.657
960.28	6.578
960.58	3.657
960.88	5.578
961.18	3.657
961.48	1.578
961.77	10.657
962.07	9.578
962.37	5.657
962.67	11.578
962.97	9.657
963.27	5.578
963.57	2.657
963.87	6.578
964.16	3.657
964.46	9.578
964.76	7.657
965.06	3.578
965.36	6.657
965.66	5.578
965.95	7.657
966.25	5.578
966.55	3.657
966.85	6.578
967.15	5.657
967.44	1.578
967.74	4.657
968.04	2.578
968.34	3.657
968.64	6.578
968.93	7.657
969.23	6.578
969.53	11.657
969.83	2.578
970.12	5.657
970.42	3.578
970.72	5.657
971.02	1.578
971.31	6.657
971.61	3.578
971.91	6.657
972.20	1.578
972.50	4.657
972.80	7.578
973.10	4.657
973.39	5.578
973.69	2.657
973.99	5.578
974.28	0.657
974.58	6.578
974.88	3.657
975.17	6.578
975.47	3.657
975.77	3.578
976.06	2.657
976.36	3.578
976.65	5.657
976.95	6.578
977.25	6.657
977.54	2.578
977.84	4.657
978.13	6.578
978.43	2.657
978.73	4.578
979.02	10.657
979.32	7.578
979.61	4.657
979.91	3.578
980.21	5.657
980.50	3.578
980.80	6.657
981.09	8.578
981.39	1.657
981.68	3.578
981.98	7.657
982.27	7.578
982.57	2.657
982.86	5.578
983.16	4.657
983.45	4.578
983.75	5.657
984.04	2.578
984.34	6.657
984.63	6.578
984.93	8.657
985.22	6.578
985.52	6.657
985.81	1.578
986.11	4.657
986.40	0.578
986.69	6.657
986.99	3.578
987.28	2.657
987.58	0.578
987.87	4.657
988.17	3.578
988.46	6.657
988.75	2.578
989.05	8.657
989.34	0.578
989.64	4.657
989.93	6.578
990.22	5.657
990.52	6.578
990.81	8.657
991.10	1.578
991.40	-4.343
991.69	-2.422
991.98	1.657
992.28	1.578
992.57	-1.343
992.86	6.578
993.16	0.657
993.45	3.578
993.74	0.657
994.04	2.578
994.33	9.657
994.62	4.578
994.92	3.657
995.21	2.578
995.50	4.657
995.79	3.578
996.09	5.657
996.38	-1.422
996.67	-0.343
996.96	1.578
997.26	0.657
997.55	3.578
997.84	3.657
998.13	3.578
998.43	4.657
998.72	2.578
999.01	5.657
999.30	2.578
999.59	3.657
999.89	8.578
1000.18	3.657
1000.47	3.578
1000.76	-0.343
1001.05	0.578
1001.34	1.657
1001.64	1.578
1001.93	3.657
1002.22	-0.422
1002.51	1.657
1002.80	3.578
1003.09	2.657
1003.38	2.578
1003.68	1.657
1003.97	6.578
1004.26	5.657
1004.55	6.578
1004.84	7.657
1005.13	2.578
1005.42	4.657
1005.71	4.578
1006.00	4.657
1006.29	4.578
1006.58	0.657
1006.87	5.578
1007.17	3.657
1007.46	0.578
1007.75	3.657
1008.04	2.578
1008.33	3.657
1008.62	-1.422
1008.91	5.657
1009.20	7.578
1009.49	-0.343
1009.78	2.578
1010.07	6.657
1010.36	3.578
1010.65	2.657
1010.94	2.578
1011.23	0.657
1011.52	-3.422
1011.81	1.657
1012.10	3.578
1012.39	3.657
1012.67	4.578
1012.96	6.657
1013.25	2.578
1013.54	4.657
1013.83	3.578
1014.12	8.657
1014.41	2.578
1014.70	5.657
1014.99	5.578
1015.28	1.657
1015.57	-2.422
1015.86	4.657
1016.14	3.578
1016.43	5.657
1016.72	4.578
1017.01	5.657
1017.30	1.578
1017.59	3.657
1017.88	4.578
1018.16	8.657
1018.45	4.578
1018.74	-1.343
1019.03	2.578
1019.32	-1.343
1019.60	1.578
1019.89	4.657
1020.18	-0.422
1020.47	0.657
1020.76	7.578
1021.04	-0.343
1021.33	-0.422
1021.62	-0.343
1021.91	5.578
1022.20	3.657
1022.48	3.578
1022.77	2.657
1023.06	3.578
1023.35	4.657
1023.63	2.578
1023.92	1.657
1024.21	1.578
1024.49	5.657
1024.78	0.578
1025.07	7.657
1025.36	-0.422
1025.64	1.657
1025.93	4.578
1026.22	2.657
1026.50	1.578
1026.79	3.657
1027.08	1.578
1027.36	4.657
1027.65	2.578
1027.94	2.657
1028.22	1.578
1028.51	7.657
1028.79	3.578
1029.08	2.657
1029.37	1.578
1029.65	1.657
1029.94	1.578
1030.23	-0.343
1030.51	3.578
1030.80	5.657
1031.08	4.578
1031.37	9.657
1031.65	1.578
1031.94	1.657
1032.23	-2.422
1032.51	3.657
1032.80	4.578
1033.08	6.657
1033.37	1.578
1033.65	5.657
1033.94	1.578
1034.22	7.657
1034.51	3.578
1034.79	7.657
1035.08	3.578
1035.36	6.657
1035.65	3.578
1035.93	3.657
1036.22	3.578
1036.50	7.657
1036.79	0.578
1037.07	-0.343
1037.36	5.578
1037.64	1.657
1037.93	-1.422
1038.21	6.657
1038.50	3.578
1038.78	1.657
1039.06	2.578
1039.35	-0.343
1039.63	1.578
1039.92	-2.343
1040.20	-3.422
1040.48	-1.343
1040.77	-0.422
1041.05	0.657
1041.34	-0.422
1041.62	-1.343
1041.90	4.578
1042.19	3.657
1042.47	0.578
1042.75	0.657
1043.04	3.578
1043.32	3.657
1043.60	1.578
1043.89	6.657
1044.17	2.578
1044.45	8.657
1044.74	-0.422
1045.02	4.657
1045.30	-2.422
1045.59	1.657
1045.87	2.578
1046.15	5.657
1046.44	6.578
1046.72	7.657
1047.00	-3.422
1047.28	0.657
1047.57	2.578
1047.85	2.657
1048.13	-3.422
1048.41	7.657
1048.70	5.578
1048.98	4.657
1049.26	-1.422
1049.54	0.657
1049.82	-2.422
1050.11	0.657
1050.39	-1.422
1050.67	-1.343
1050.95	0.578
1051.23	4.657
1051.52	-2.422
1051.80	0.657
1052.08	1.578
>>>>>End Spectral Data<<<<<
